;Scopy version,f4beeb1
;Exported on,mercredi décembre 11/12/2024
;Device,M2K
;Nr of samples,8000
;Sample rate,1000
;Tool,Oscilloscope
;Additional Information,
Sample,Time(S),CH1(V)
0,-4,0.00521655
1,-3.999,0.00521655
2,-3.998,0.00521655
3,-3.997,0.00521655
4,-3.996,0.00521655
5,-3.995,0.00521655
6,-3.994,0.00521655
7,-3.993,0.00521655
8,-3.992,0.00521655
9,-3.991,0.00521655
10,-3.99,0.00521655
11,-3.989,0.00521655
12,-3.988,0.00521655
13,-3.987,0.00521655
14,-3.986,0.00521655
15,-3.985,0.00521655
16,-3.984,0.00521655
17,-3.983,0.00521655
18,-3.982,0.00521655
19,-3.981,0.00521655
20,-3.98,0.00521655
21,-3.979,0.00521655
22,-3.978,0.00521655
23,-3.977,0.00521655
24,-3.976,0.00521655
25,-3.975,0.00521655
26,-3.974,0.00521655
27,-3.973,0.00521655
28,-3.972,0.00521655
29,-3.971,0.00521655
30,-3.97,0.00521655
31,-3.969,0.00521655
32,-3.968,0.00521655
33,-3.967,0.00521655
34,-3.966,0.00521655
35,-3.965,0.00521655
36,-3.964,0.00521655
37,-3.963,0.00521655
38,-3.962,0.00521655
39,-3.961,0.00521655
40,-3.96,0.00521655
41,-3.959,0.00521655
42,-3.958,0.00521655
43,-3.957,0.00521655
44,-3.956,0.00521655
45,-3.955,0.00521655
46,-3.954,0.00521655
47,-3.953,0.00521655
48,-3.952,0.00521655
49,-3.951,0.00521655
50,-3.95,0.00521655
51,-3.949,0.00521655
52,-3.948,0.00521655
53,-3.947,0.00521655
54,-3.946,0.00521655
55,-3.945,0.00521655
56,-3.944,0.00521655
57,-3.943,0.00521655
58,-3.942,0.00521655
59,-3.941,0.00521655
60,-3.94,0.00521655
61,-3.939,0.00521655
62,-3.938,0.00521655
63,-3.937,0.00521655
64,-3.936,0.00521655
65,-3.935,0.00521655
66,-3.934,0.00521655
67,-3.933,0.00521655
68,-3.932,0.00521655
69,-3.931,0.00521655
70,-3.93,0.00521655
71,-3.929,0.00521655
72,-3.928,0.00521655
73,-3.927,0.00521655
74,-3.926,0.00521655
75,-3.925,0.00521655
76,-3.924,0.00521655
77,-3.923,0.00521655
78,-3.922,0.00521655
79,-3.921,0.00521655
80,-3.92,0.00521655
81,-3.919,0.00521655
82,-3.918,0.00521655
83,-3.917,0.00521655
84,-3.916,0.00521655
85,-3.915,0.00521655
86,-3.914,0.00521655
87,-3.913,0.00521655
88,-3.912,0.00521655
89,-3.911,0.00521655
90,-3.91,0.00521655
91,-3.909,0.00521655
92,-3.908,0.00521655
93,-3.907,0.00521655
94,-3.906,0.00521655
95,-3.905,0.00521655
96,-3.904,0.00521655
97,-3.903,0.00521655
98,-3.902,0.00521655
99,-3.901,0.00521655
100,-3.9,0.00521655
101,-3.899,0.00521655
102,-3.898,0.00521655
103,-3.897,0.00521655
104,-3.896,0.00521655
105,-3.895,0.00521655
106,-3.894,0.00521655
107,-3.893,0.00521655
108,-3.892,0.00521655
109,-3.891,0.00521655
110,-3.89,0.00521655
111,-3.889,0.00521655
112,-3.888,0.00521655
113,-3.887,0.00521655
114,-3.886,0.00521655
115,-3.885,0.00521655
116,-3.884,0.00521655
117,-3.883,0.00521655
118,-3.882,0.00521655
119,-3.881,0.00521655
120,-3.88,0.00521655
121,-3.879,0.00521655
122,-3.878,0.00521655
123,-3.877,0.00521655
124,-3.876,0.00521655
125,-3.875,0.00521655
126,-3.874,0.00521655
127,-3.873,0.00521655
128,-3.872,0.00521655
129,-3.871,0.00521655
130,-3.87,0.00521655
131,-3.869,0.00521655
132,-3.868,0.00521655
133,-3.867,0.00521655
134,-3.866,0.00521655
135,-3.865,0.00521655
136,-3.864,0.00521655
137,-3.863,0.00521655
138,-3.862,0.00521655
139,-3.861,0.00521655
140,-3.86,0.00521655
141,-3.859,0.00521655
142,-3.858,0.00521655
143,-3.857,0.00521655
144,-3.856,0.00521655
145,-3.855,0.00521655
146,-3.854,0.00521655
147,-3.853,0.00521655
148,-3.852,0.00521655
149,-3.851,0.00521655
150,-3.85,0.00521655
151,-3.849,0.00521655
152,-3.848,0.00521655
153,-3.847,0.00521655
154,-3.846,0.00521655
155,-3.845,0.00521655
156,-3.844,0.00521655
157,-3.843,0.00521655
158,-3.842,0.00521655
159,-3.841,0.00521655
160,-3.84,0.00521655
161,-3.839,0.00521655
162,-3.838,0.00521655
163,-3.837,0.00521655
164,-3.836,0.00521655
165,-3.835,0.00521655
166,-3.834,0.00521655
167,-3.833,0.00521655
168,-3.832,0.00521655
169,-3.831,0.00521655
170,-3.83,0.00521655
171,-3.829,0.00521655
172,-3.828,0.00521655
173,-3.827,0.00521655
174,-3.826,0.00521655
175,-3.825,0.00521655
176,-3.824,0.00521655
177,-3.823,0.00521655
178,-3.822,0.00521655
179,-3.821,0.00521655
180,-3.82,0.00521655
181,-3.819,0.00521655
182,-3.818,0.00521655
183,-3.817,0.00521655
184,-3.816,0.00521655
185,-3.815,0.00521655
186,-3.814,0.00521655
187,-3.813,0.00521655
188,-3.812,0.00521655
189,-3.811,0.00521655
190,-3.81,0.00521655
191,-3.809,0.00521655
192,-3.808,0.00521655
193,-3.807,0.00521655
194,-3.806,0.00521655
195,-3.805,0.00521655
196,-3.804,0.00521655
197,-3.803,0.00521655
198,-3.802,0.00521655
199,-3.801,0.00521655
200,-3.8,0.00521655
201,-3.799,0.00521655
202,-3.798,0.00521655
203,-3.797,0.00521655
204,-3.796,0.00521655
205,-3.795,0.00521655
206,-3.794,0.00521655
207,-3.793,0.00521655
208,-3.792,0.00521655
209,-3.791,0.00521655
210,-3.79,0.00521655
211,-3.789,0.00521655
212,-3.788,0.00521655
213,-3.787,0.00521655
214,-3.786,0.00521655
215,-3.785,0.00521655
216,-3.784,0.00521655
217,-3.783,0.00521655
218,-3.782,0.00521655
219,-3.781,0.00521655
220,-3.78,0.00521655
221,-3.779,0.00521655
222,-3.778,0.00521655
223,-3.777,0.00521655
224,-3.776,0.00521655
225,-3.775,0.00521655
226,-3.774,0.00521655
227,-3.773,0.00521655
228,-3.772,0.00521655
229,-3.771,0.00521655
230,-3.77,0.00521655
231,-3.769,0.00521655
232,-3.768,0.00521655
233,-3.767,0.00521655
234,-3.766,0.00521655
235,-3.765,0.00521655
236,-3.764,0.00521655
237,-3.763,0.00521655
238,-3.762,0.00521655
239,-3.761,0.00521655
240,-3.76,0.00521655
241,-3.759,0.00521655
242,-3.758,0.00521655
243,-3.757,0.00521655
244,-3.756,0.00521655
245,-3.755,0.00521655
246,-3.754,0.00521655
247,-3.753,0.00521655
248,-3.752,0.00521655
249,-3.751,0.00521655
250,-3.75,0.00521655
251,-3.749,0.00521655
252,-3.748,0.00521655
253,-3.747,0.00521655
254,-3.746,0.00521655
255,-3.745,0.00521655
256,-3.744,0.00521655
257,-3.743,0.00521655
258,-3.742,0.00521655
259,-3.741,0.00521655
260,-3.74,0.00521655
261,-3.739,0.00521655
262,-3.738,0.00521655
263,-3.737,0.00521655
264,-3.736,0.00521655
265,-3.735,0.00521655
266,-3.734,0.00521655
267,-3.733,0.00521655
268,-3.732,0.00521655
269,-3.731,0.00521655
270,-3.73,0.00521655
271,-3.729,0.00521655
272,-3.728,0.00521655
273,-3.727,0.00521655
274,-3.726,0.00521655
275,-3.725,0.00521655
276,-3.724,0.00521655
277,-3.723,0.00521655
278,-3.722,0.00521655
279,-3.721,0.00521655
280,-3.72,0.00521655
281,-3.719,0.00521655
282,-3.718,0.00521655
283,-3.717,0.00521655
284,-3.716,0.00521655
285,-3.715,0.00521655
286,-3.714,0.00521655
287,-3.713,0.00521655
288,-3.712,0.00521655
289,-3.711,0.00521655
290,-3.71,0.00521655
291,-3.709,0.00521655
292,-3.708,0.00521655
293,-3.707,0.00521655
294,-3.706,0.00521655
295,-3.705,0.00521655
296,-3.704,0.00521655
297,-3.703,0.00521655
298,-3.702,0.00521655
299,-3.701,0.00521655
300,-3.7,0.00521655
301,-3.699,0.00521655
302,-3.698,0.00521655
303,-3.697,0.00521655
304,-3.696,0.00521655
305,-3.695,0.00521655
306,-3.694,0.00521655
307,-3.693,0.00521655
308,-3.692,0.00521655
309,-3.691,0.00521655
310,-3.69,0.00521655
311,-3.689,0.00521655
312,-3.688,0.00521655
313,-3.687,0.00521655
314,-3.686,0.00521655
315,-3.685,0.00521655
316,-3.684,0.00521655
317,-3.683,0.00521655
318,-3.682,0.00521655
319,-3.681,0.00521655
320,-3.68,0.00521655
321,-3.679,0.00521655
322,-3.678,0.00521655
323,-3.677,0.00521655
324,-3.676,0.00521655
325,-3.675,0.00521655
326,-3.674,0.00521655
327,-3.673,0.00521655
328,-3.672,0.00521655
329,-3.671,0.00521655
330,-3.67,0.00521655
331,-3.669,0.00521655
332,-3.668,0.00521655
333,-3.667,0.00521655
334,-3.666,0.00521655
335,-3.665,0.00521655
336,-3.664,0.00521655
337,-3.663,0.00521655
338,-3.662,0.00521655
339,-3.661,0.00521655
340,-3.66,0.00521655
341,-3.659,0.00521655
342,-3.658,0.00521655
343,-3.657,0.00521655
344,-3.656,0.00521655
345,-3.655,0.00521655
346,-3.654,0.00521655
347,-3.653,0.00521655
348,-3.652,0.00521655
349,-3.651,0.00521655
350,-3.65,0.00521655
351,-3.649,0.00521655
352,-3.648,0.00521655
353,-3.647,0.00521655
354,-3.646,0.00521655
355,-3.645,0.00521655
356,-3.644,0.00521655
357,-3.643,0.00521655
358,-3.642,0.00521655
359,-3.641,0.00521655
360,-3.64,0.00521655
361,-3.639,0.00521655
362,-3.638,0.00521655
363,-3.637,0.00521655
364,-3.636,0.00521655
365,-3.635,0.00521655
366,-3.634,0.00521655
367,-3.633,0.00521655
368,-3.632,0.00521655
369,-3.631,0.00521655
370,-3.63,0.00521655
371,-3.629,0.00521655
372,-3.628,0.00521655
373,-3.627,0.00521655
374,-3.626,0.00521655
375,-3.625,0.00521655
376,-3.624,0.00521655
377,-3.623,0.00521655
378,-3.622,0.00521655
379,-3.621,0.00521655
380,-3.62,0.00521655
381,-3.619,0.00521655
382,-3.618,0.00521655
383,-3.617,0.00521655
384,-3.616,0.00521655
385,-3.615,0.00521655
386,-3.614,0.00521655
387,-3.613,0.00521655
388,-3.612,0.00521655
389,-3.611,0.00521655
390,-3.61,0.00521655
391,-3.609,0.00521655
392,-3.608,0.00521655
393,-3.607,0.00521655
394,-3.606,0.00521655
395,-3.605,0.00521655
396,-3.604,0.00521655
397,-3.603,0.00521655
398,-3.602,0.00521655
399,-3.601,0.00521655
400,-3.6,0.00521655
401,-3.599,0.00521655
402,-3.598,0.00521655
403,-3.597,0.00521655
404,-3.596,0.00521655
405,-3.595,0.00521655
406,-3.594,0.00521655
407,-3.593,0.00521655
408,-3.592,0.00521655
409,-3.591,0.00521655
410,-3.59,0.00521655
411,-3.589,0.00521655
412,-3.588,0.00521655
413,-3.587,0.00521655
414,-3.586,0.00521655
415,-3.585,0.00521655
416,-3.584,0.00521655
417,-3.583,0.00521655
418,-3.582,0.00521655
419,-3.581,0.00521655
420,-3.58,0.00521655
421,-3.579,0.00521655
422,-3.578,0.00521655
423,-3.577,0.00521655
424,-3.576,0.00521655
425,-3.575,0.00521655
426,-3.574,0.00521655
427,-3.573,0.00521655
428,-3.572,0.00521655
429,-3.571,0.00521655
430,-3.57,0.00521655
431,-3.569,0.00521655
432,-3.568,0.00521655
433,-3.567,0.00521655
434,-3.566,0.00521655
435,-3.565,0.00521655
436,-3.564,0.00521655
437,-3.563,0.00521655
438,-3.562,0.00521655
439,-3.561,0.00521655
440,-3.56,0.00521655
441,-3.559,0.00521655
442,-3.558,0.00521655
443,-3.557,0.00521655
444,-3.556,0.00521655
445,-3.555,0.00521655
446,-3.554,0.00521655
447,-3.553,0.00521655
448,-3.552,0.00521655
449,-3.551,0.00521655
450,-3.55,0.00521655
451,-3.549,0.00521655
452,-3.548,0.00521655
453,-3.547,0.00521655
454,-3.546,0.00521655
455,-3.545,0.00521655
456,-3.544,0.00521655
457,-3.543,0.00521655
458,-3.542,0.00521655
459,-3.541,0.00521655
460,-3.54,0.00521655
461,-3.539,0.00521655
462,-3.538,0.00521655
463,-3.537,0.00521655
464,-3.536,0.00521655
465,-3.535,0.00521655
466,-3.534,0.00521655
467,-3.533,0.00521655
468,-3.532,0.00521655
469,-3.531,0.00521655
470,-3.53,0.00521655
471,-3.529,0.00521655
472,-3.528,0.00521655
473,-3.527,0.00521655
474,-3.526,0.00521655
475,-3.525,0.00521655
476,-3.524,0.00521655
477,-3.523,0.00521655
478,-3.522,0.00521655
479,-3.521,0.00521655
480,-3.52,0.00521655
481,-3.519,0.00521655
482,-3.518,0.00521655
483,-3.517,0.00521655
484,-3.516,0.00521655
485,-3.515,0.00521655
486,-3.514,0.00521655
487,-3.513,0.00521655
488,-3.512,0.00521655
489,-3.511,0.00521655
490,-3.51,0.00521655
491,-3.509,0.00521655
492,-3.508,0.00521655
493,-3.507,0.00521655
494,-3.506,0.00521655
495,-3.505,0.00521655
496,-3.504,0.00521655
497,-3.503,0.00521655
498,-3.502,0.00521655
499,-3.501,0.00521655
500,-3.5,0.00521655
501,-3.499,0.00521655
502,-3.498,0.00521655
503,-3.497,0.00521655
504,-3.496,0.00521655
505,-3.495,0.00521655
506,-3.494,0.00521655
507,-3.493,0.00521655
508,-3.492,0.00521655
509,-3.491,0.00521655
510,-3.49,0.00521655
511,-3.489,0.00521655
512,-3.488,0.00521655
513,-3.487,0.00521655
514,-3.486,0.00521655
515,-3.485,0.00521655
516,-3.484,0.00521655
517,-3.483,0.00521655
518,-3.482,0.00521655
519,-3.481,0.00521655
520,-3.48,0.00521655
521,-3.479,0.00521655
522,-3.478,0.00521655
523,-3.477,0.00521655
524,-3.476,0.00521655
525,-3.475,0.00521655
526,-3.474,0.00521655
527,-3.473,0.00521655
528,-3.472,0.00521655
529,-3.471,0.00521655
530,-3.47,0.00521655
531,-3.469,0.00521655
532,-3.468,0.00521655
533,-3.467,0.00521655
534,-3.466,0.00521655
535,-3.465,0.00521655
536,-3.464,0.00521655
537,-3.463,0.00521655
538,-3.462,0.00521655
539,-3.461,0.00521655
540,-3.46,0.00521655
541,-3.459,0.00521655
542,-3.458,0.00521655
543,-3.457,0.00521655
544,-3.456,0.00521655
545,-3.455,0.00521655
546,-3.454,0.00521655
547,-3.453,0.00521655
548,-3.452,0.00521655
549,-3.451,0.00521655
550,-3.45,0.00521655
551,-3.449,0.00521655
552,-3.448,0.00521655
553,-3.447,0.00521655
554,-3.446,0.00521655
555,-3.445,0.00521655
556,-3.444,0.00521655
557,-3.443,0.00521655
558,-3.442,0.00521655
559,-3.441,0.00521655
560,-3.44,0.00521655
561,-3.439,0.00521655
562,-3.438,0.00521655
563,-3.437,0.00521655
564,-3.436,0.00521655
565,-3.435,0.00521655
566,-3.434,0.00521655
567,-3.433,0.00521655
568,-3.432,0.00521655
569,-3.431,0.00521655
570,-3.43,0.00521655
571,-3.429,0.00521655
572,-3.428,0.00521655
573,-3.427,0.00521655
574,-3.426,0.00521655
575,-3.425,0.00521655
576,-3.424,0.00521655
577,-3.423,0.00521655
578,-3.422,0.00521655
579,-3.421,0.00521655
580,-3.42,0.00521655
581,-3.419,0.00521655
582,-3.418,0.00521655
583,-3.417,0.00521655
584,-3.416,0.00521655
585,-3.415,0.00521655
586,-3.414,0.00521655
587,-3.413,0.00521655
588,-3.412,0.00521655
589,-3.411,0.00521655
590,-3.41,0.00521655
591,-3.409,0.00521655
592,-3.408,0.00521655
593,-3.407,0.00521655
594,-3.406,0.00521655
595,-3.405,0.00521655
596,-3.404,0.00521655
597,-3.403,0.00521655
598,-3.402,0.00521655
599,-3.401,0.00521655
600,-3.4,0.00521655
601,-3.399,0.00521655
602,-3.398,0.00521655
603,-3.397,0.00521655
604,-3.396,0.00521655
605,-3.395,0.00521655
606,-3.394,0.00521655
607,-3.393,0.00521655
608,-3.392,0.00521655
609,-3.391,0.00521655
610,-3.39,0.00521655
611,-3.389,0.00521655
612,-3.388,0.00521655
613,-3.387,0.00521655
614,-3.386,0.00521655
615,-3.385,0.00521655
616,-3.384,0.00521655
617,-3.383,0.00521655
618,-3.382,0.00521655
619,-3.381,0.00521655
620,-3.38,0.00521655
621,-3.379,0.00521655
622,-3.378,0.00521655
623,-3.377,0.00521655
624,-3.376,0.00521655
625,-3.375,0.00521655
626,-3.374,0.00521655
627,-3.373,0.00521655
628,-3.372,0.00521655
629,-3.371,0.00521655
630,-3.37,0.00521655
631,-3.369,0.00521655
632,-3.368,0.00521655
633,-3.367,0.00521655
634,-3.366,0.00521655
635,-3.365,0.00521655
636,-3.364,0.00521655
637,-3.363,0.00521655
638,-3.362,0.00521655
639,-3.361,0.00521655
640,-3.36,0.00521655
641,-3.359,0.00521655
642,-3.358,0.00521655
643,-3.357,0.00521655
644,-3.356,0.00521655
645,-3.355,0.00521655
646,-3.354,0.00521655
647,-3.353,0.00521655
648,-3.352,0.00521655
649,-3.351,0.00521655
650,-3.35,0.00521655
651,-3.349,0.00521655
652,-3.348,0.00521655
653,-3.347,0.00521655
654,-3.346,0.00521655
655,-3.345,0.00521655
656,-3.344,0.00521655
657,-3.343,0.00521655
658,-3.342,0.00521655
659,-3.341,0.00521655
660,-3.34,0.00521655
661,-3.339,0.00521655
662,-3.338,0.00521655
663,-3.337,0.00521655
664,-3.336,0.00521655
665,-3.335,0.00521655
666,-3.334,0.00521655
667,-3.333,0.00521655
668,-3.332,0.00521655
669,-3.331,0.00521655
670,-3.33,0.00521655
671,-3.329,0.00521655
672,-3.328,0.00521655
673,-3.327,0.00521655
674,-3.326,0.00521655
675,-3.325,0.00521655
676,-3.324,0.00521655
677,-3.323,0.00521655
678,-3.322,0.00521655
679,-3.321,0.00521655
680,-3.32,0.00521655
681,-3.319,0.00521655
682,-3.318,0.00521655
683,-3.317,0.00521655
684,-3.316,0.00521655
685,-3.315,0.00521655
686,-3.314,0.00521655
687,-3.313,0.00521655
688,-3.312,0.00521655
689,-3.311,0.00521655
690,-3.31,0.00521655
691,-3.309,0.00521655
692,-3.308,0.00521655
693,-3.307,0.00521655
694,-3.306,0.00521655
695,-3.305,0.00521655
696,-3.304,0.00521655
697,-3.303,0.00521655
698,-3.302,0.00521655
699,-3.301,0.00521655
700,-3.3,0.00521655
701,-3.299,0.00521655
702,-3.298,0.00521655
703,-3.297,0.00521655
704,-3.296,0.00521655
705,-3.295,0.00521655
706,-3.294,0.00521655
707,-3.293,0.00521655
708,-3.292,0.00521655
709,-3.291,0.00521655
710,-3.29,0.00521655
711,-3.289,0.00521655
712,-3.288,0.00521655
713,-3.287,0.00521655
714,-3.286,0.00521655
715,-3.285,0.00521655
716,-3.284,0.00521655
717,-3.283,0.00521655
718,-3.282,0.00521655
719,-3.281,0.00521655
720,-3.28,0.00521655
721,-3.279,0.00521655
722,-3.278,0.00521655
723,-3.277,0.00521655
724,-3.276,0.00521655
725,-3.275,0.00521655
726,-3.274,0.00521655
727,-3.273,0.00521655
728,-3.272,0.00521655
729,-3.271,0.00521655
730,-3.27,0.00521655
731,-3.269,0.00521655
732,-3.268,0.00521655
733,-3.267,0.00521655
734,-3.266,0.00521655
735,-3.265,0.00521655
736,-3.264,0.00521655
737,-3.263,0.00521655
738,-3.262,0.00521655
739,-3.261,0.00521655
740,-3.26,0.00521655
741,-3.259,0.00521655
742,-3.258,0.00521655
743,-3.257,0.00521655
744,-3.256,0.00521655
745,-3.255,0.00521655
746,-3.254,0.00521655
747,-3.253,0.00521655
748,-3.252,0.00521655
749,-3.251,0.00521655
750,-3.25,0.00521655
751,-3.249,0.00521655
752,-3.248,0.00521655
753,-3.247,0.00521655
754,-3.246,0.00521655
755,-3.245,0.00521655
756,-3.244,0.00521655
757,-3.243,0.00521655
758,-3.242,0.00521655
759,-3.241,0.00521655
760,-3.24,0.00521655
761,-3.239,0.00521655
762,-3.238,0.00521655
763,-3.237,0.00521655
764,-3.236,0.00521655
765,-3.235,0.00521655
766,-3.234,0.00521655
767,-3.233,0.00521655
768,-3.232,0.00521655
769,-3.231,0.00521655
770,-3.23,0.00521655
771,-3.229,0.00521655
772,-3.228,0.00521655
773,-3.227,0.00521655
774,-3.226,0.00521655
775,-3.225,0.00521655
776,-3.224,0.00521655
777,-3.223,0.00521655
778,-3.222,0.00521655
779,-3.221,0.00521655
780,-3.22,0.00521655
781,-3.219,0.00521655
782,-3.218,0.00521655
783,-3.217,0.00521655
784,-3.216,0.00521655
785,-3.215,0.00521655
786,-3.214,0.00521655
787,-3.213,0.00521655
788,-3.212,0.00521655
789,-3.211,0.00521655
790,-3.21,0.00521655
791,-3.209,0.00521655
792,-3.208,0.00521655
793,-3.207,0.00521655
794,-3.206,0.00521655
795,-3.205,0.00521655
796,-3.204,0.00521655
797,-3.203,0.00521655
798,-3.202,0.00521655
799,-3.201,0.00521655
800,-3.2,0.00521655
801,-3.199,0.00521655
802,-3.198,0.00521655
803,-3.197,0.00521655
804,-3.196,0.00521655
805,-3.195,0.00521655
806,-3.194,0.00521655
807,-3.193,0.00521655
808,-3.192,0.00521655
809,-3.191,0.00521655
810,-3.19,0.00521655
811,-3.189,0.00521655
812,-3.188,0.00521655
813,-3.187,0.00521655
814,-3.186,0.00521655
815,-3.185,0.00521655
816,-3.184,0.00521655
817,-3.183,0.00521655
818,-3.182,0.00521655
819,-3.181,0.00521655
820,-3.18,0.00521655
821,-3.179,0.00521655
822,-3.178,0.00521655
823,-3.177,0.00521655
824,-3.176,0.00521655
825,-3.175,0.00521655
826,-3.174,0.00521655
827,-3.173,0.00521655
828,-3.172,0.00521655
829,-3.171,0.00521655
830,-3.17,0.00521655
831,-3.169,0.00521655
832,-3.168,0.00521655
833,-3.167,0.00521655
834,-3.166,0.00521655
835,-3.165,0.00521655
836,-3.164,0.00521655
837,-3.163,0.00521655
838,-3.162,0.00521655
839,-3.161,0.00521655
840,-3.16,0.00521655
841,-3.159,0.00521655
842,-3.158,0.00521655
843,-3.157,0.00521655
844,-3.156,0.00521655
845,-3.155,0.00521655
846,-3.154,0.00521655
847,-3.153,0.00521655
848,-3.152,0.00521655
849,-3.151,0.00521655
850,-3.15,0.00521655
851,-3.149,0.00521655
852,-3.148,0.00521655
853,-3.147,0.00521655
854,-3.146,0.00521655
855,-3.145,0.00521655
856,-3.144,0.00521655
857,-3.143,0.00521655
858,-3.142,0.00521655
859,-3.141,0.00521655
860,-3.14,0.00521655
861,-3.139,0.00521655
862,-3.138,0.00521655
863,-3.137,0.00521655
864,-3.136,0.00521655
865,-3.135,0.00521655
866,-3.134,0.00521655
867,-3.133,0.00521655
868,-3.132,0.00521655
869,-3.131,0.00521655
870,-3.13,0.00521655
871,-3.129,0.00521655
872,-3.128,0.00521655
873,-3.127,0.00521655
874,-3.126,0.00521655
875,-3.125,0.00521655
876,-3.124,0.00521655
877,-3.123,0.00521655
878,-3.122,0.00521655
879,-3.121,0.00521655
880,-3.12,0.00521655
881,-3.119,0.00521655
882,-3.118,0.00521655
883,-3.117,0.00521655
884,-3.116,0.00521655
885,-3.115,0.00521655
886,-3.114,0.00521655
887,-3.113,0.00521655
888,-3.112,0.00521655
889,-3.111,0.00521655
890,-3.11,0.00521655
891,-3.109,0.00521655
892,-3.108,0.00521655
893,-3.107,0.00521655
894,-3.106,0.00521655
895,-3.105,0.00521655
896,-3.104,0.00521655
897,-3.103,0.00521655
898,-3.102,0.00521655
899,-3.101,0.00521655
900,-3.1,0.00521655
901,-3.099,0.00521655
902,-3.098,0.00521655
903,-3.097,0.00521655
904,-3.096,0.00521655
905,-3.095,0.00521655
906,-3.094,0.0034777
907,-3.093,0.00521655
908,-3.092,0.00521655
909,-3.091,0.00521655
910,-3.09,0.00521655
911,-3.089,0.00521655
912,-3.088,0.00521655
913,-3.087,0.00521655
914,-3.086,0.00521655
915,-3.085,0.00521655
916,-3.084,0.00521655
917,-3.083,0.00521655
918,-3.082,0.00521655
919,-3.081,0.00521655
920,-3.08,0.00521655
921,-3.079,0.00521655
922,-3.078,0.00521655
923,-3.077,0.00521655
924,-3.076,0.00521655
925,-3.075,0.00521655
926,-3.074,0.00521655
927,-3.073,0.00521655
928,-3.072,0.00521655
929,-3.071,0.00521655
930,-3.07,0.00521655
931,-3.069,0.00521655
932,-3.068,0.00521655
933,-3.067,0.00521655
934,-3.066,0.00521655
935,-3.065,0.00521655
936,-3.064,0.00521655
937,-3.063,0.00521655
938,-3.062,0.00521655
939,-3.061,0.00521655
940,-3.06,0.00521655
941,-3.059,0.00521655
942,-3.058,0.00521655
943,-3.057,0.00521655
944,-3.056,0.00521655
945,-3.055,0.00521655
946,-3.054,0.00521655
947,-3.053,0.00521655
948,-3.052,0.00521655
949,-3.051,0.00521655
950,-3.05,0.00521655
951,-3.049,0.00521655
952,-3.048,0.00521655
953,-3.047,0.00521655
954,-3.046,0.00521655
955,-3.045,0.00521655
956,-3.044,0.00521655
957,-3.043,0.00521655
958,-3.042,0.00521655
959,-3.041,0.00521655
960,-3.04,0.00521655
961,-3.039,0.00521655
962,-3.038,0.00521655
963,-3.037,0.00521655
964,-3.036,0.00521655
965,-3.035,0.00521655
966,-3.034,0.00521655
967,-3.033,0.00521655
968,-3.032,0.00521655
969,-3.031,0.00521655
970,-3.03,0.00521655
971,-3.029,0.00521655
972,-3.028,0.00521655
973,-3.027,0.00521655
974,-3.026,0.00521655
975,-3.025,0.00521655
976,-3.024,0.00521655
977,-3.023,0.00521655
978,-3.022,0.00521655
979,-3.021,0.00521655
980,-3.02,0.00521655
981,-3.019,0.00521655
982,-3.018,0.00521655
983,-3.017,0.00521655
984,-3.016,0.00521655
985,-3.015,0.00521655
986,-3.014,0.00521655
987,-3.013,0.00521655
988,-3.012,0.00521655
989,-3.011,0.00521655
990,-3.01,0.00521655
991,-3.009,0.00521655
992,-3.008,0.00521655
993,-3.007,0.00521655
994,-3.006,0.00521655
995,-3.005,0.00521655
996,-3.004,0.00521655
997,-3.003,0.00521655
998,-3.002,0.00521655
999,-3.001,0.00521655
1000,-3,0.00521655
1001,-2.999,0.00521655
1002,-2.998,0.00521655
1003,-2.997,0.00521655
1004,-2.996,0.00521655
1005,-2.995,0.00521655
1006,-2.994,0.00521655
1007,-2.993,0.0034777
1008,-2.992,0.00521655
1009,-2.991,0.00521655
1010,-2.99,0.00521655
1011,-2.989,0.00521655
1012,-2.988,0.00521655
1013,-2.987,0.00521655
1014,-2.986,0.00521655
1015,-2.985,0.00521655
1016,-2.984,0.00521655
1017,-2.983,0.00521655
1018,-2.982,0.00521655
1019,-2.981,0.00521655
1020,-2.98,0.00521655
1021,-2.979,0.00521655
1022,-2.978,0.00521655
1023,-2.977,0.00521655
1024,-2.976,0.00521655
1025,-2.975,0.00521655
1026,-2.974,0.00521655
1027,-2.973,0.00521655
1028,-2.972,0.00521655
1029,-2.971,0.00521655
1030,-2.97,0.00521655
1031,-2.969,0.00521655
1032,-2.968,0.00521655
1033,-2.967,0.00521655
1034,-2.966,0.00521655
1035,-2.965,0.00521655
1036,-2.964,0.00521655
1037,-2.963,0.00521655
1038,-2.962,0.00521655
1039,-2.961,0.00521655
1040,-2.96,0.00521655
1041,-2.959,0.00521655
1042,-2.958,0.00521655
1043,-2.957,0.00521655
1044,-2.956,0.00521655
1045,-2.955,0.00521655
1046,-2.954,0.00521655
1047,-2.953,0.00521655
1048,-2.952,0.00521655
1049,-2.951,0.00521655
1050,-2.95,0.00521655
1051,-2.949,0.00521655
1052,-2.948,0.00521655
1053,-2.947,0.00521655
1054,-2.946,0.00521655
1055,-2.945,0.0034777
1056,-2.944,0.0069554
1057,-2.943,0.00521655
1058,-2.942,0.00521655
1059,-2.941,0.00521655
1060,-2.94,0.00521655
1061,-2.939,0.00521655
1062,-2.938,0.00521655
1063,-2.937,0.00521655
1064,-2.936,0.00521655
1065,-2.935,0.00521655
1066,-2.934,0.00521655
1067,-2.933,0.00521655
1068,-2.932,0.00521655
1069,-2.931,0.00521655
1070,-2.93,0.00521655
1071,-2.929,0.00521655
1072,-2.928,0.00521655
1073,-2.927,0.00521655
1074,-2.926,0.00521655
1075,-2.925,0.00521655
1076,-2.924,0.00521655
1077,-2.923,0.00521655
1078,-2.922,0.00521655
1079,-2.921,0.00521655
1080,-2.92,0.00521655
1081,-2.919,0.00521655
1082,-2.918,0.00521655
1083,-2.917,0.00521655
1084,-2.916,0.00521655
1085,-2.915,0.00521655
1086,-2.914,0.00521655
1087,-2.913,0.00521655
1088,-2.912,0.00521655
1089,-2.911,0.00521655
1090,-2.91,0.00521655
1091,-2.909,0.00521655
1092,-2.908,0.00521655
1093,-2.907,0.00521655
1094,-2.906,0.00521655
1095,-2.905,0.00521655
1096,-2.904,0.00521655
1097,-2.903,0.00521655
1098,-2.902,0.00521655
1099,-2.901,0.00521655
1100,-2.9,0.00521655
1101,-2.899,0.00521655
1102,-2.898,0.00521655
1103,-2.897,0.00521655
1104,-2.896,0.00521655
1105,-2.895,0.00521655
1106,-2.894,0.00521655
1107,-2.893,0.00521655
1108,-2.892,0.00521655
1109,-2.891,0.00521655
1110,-2.89,0.00521655
1111,-2.889,0.00521655
1112,-2.888,0.00521655
1113,-2.887,0.00521655
1114,-2.886,0.00521655
1115,-2.885,0.00521655
1116,-2.884,0.00521655
1117,-2.883,0.00521655
1118,-2.882,0.00521655
1119,-2.881,0.00521655
1120,-2.88,0.00521655
1121,-2.879,0.00521655
1122,-2.878,0.00521655
1123,-2.877,0.00521655
1124,-2.876,0.00521655
1125,-2.875,0.00521655
1126,-2.874,0.00521655
1127,-2.873,0.00521655
1128,-2.872,0.00521655
1129,-2.871,0.00521655
1130,-2.87,0.00521655
1131,-2.869,0.00521655
1132,-2.868,0.00521655
1133,-2.867,0.00521655
1134,-2.866,0.00521655
1135,-2.865,0.00521655
1136,-2.864,0.00521655
1137,-2.863,0.00521655
1138,-2.862,0.00521655
1139,-2.861,0.00521655
1140,-2.86,0.00521655
1141,-2.859,0.00521655
1142,-2.858,0.00521655
1143,-2.857,0.00521655
1144,-2.856,0.00521655
1145,-2.855,0.00521655
1146,-2.854,0.00521655
1147,-2.853,0.00521655
1148,-2.852,0.00521655
1149,-2.851,0.00521655
1150,-2.85,0.00521655
1151,-2.849,0.00521655
1152,-2.848,0.00521655
1153,-2.847,0.00521655
1154,-2.846,0.00521655
1155,-2.845,0.00521655
1156,-2.844,0.00521655
1157,-2.843,0.00521655
1158,-2.842,0.00521655
1159,-2.841,0.00521655
1160,-2.84,0.00521655
1161,-2.839,0.00521655
1162,-2.838,0.00521655
1163,-2.837,0.00521655
1164,-2.836,0.00521655
1165,-2.835,0.00521655
1166,-2.834,0.00521655
1167,-2.833,0.00521655
1168,-2.832,0.00521655
1169,-2.831,0.00521655
1170,-2.83,0.00521655
1171,-2.829,0.00521655
1172,-2.828,0.00521655
1173,-2.827,0.00521655
1174,-2.826,0.00521655
1175,-2.825,0.00521655
1176,-2.824,0.00521655
1177,-2.823,0.00521655
1178,-2.822,0.00521655
1179,-2.821,0.00521655
1180,-2.82,0.00521655
1181,-2.819,0.00521655
1182,-2.818,0.00521655
1183,-2.817,0.00521655
1184,-2.816,0.00521655
1185,-2.815,0.00521655
1186,-2.814,0.00521655
1187,-2.813,0.00521655
1188,-2.812,0.00521655
1189,-2.811,0.00521655
1190,-2.81,0.00521655
1191,-2.809,0.00521655
1192,-2.808,0.00521655
1193,-2.807,0.00521655
1194,-2.806,0.00521655
1195,-2.805,0.00521655
1196,-2.804,0.00521655
1197,-2.803,0.00521655
1198,-2.802,0.00521655
1199,-2.801,0.00521655
1200,-2.8,0.00521655
1201,-2.799,0.00521655
1202,-2.798,0.00521655
1203,-2.797,0.00521655
1204,-2.796,0.00521655
1205,-2.795,0.00521655
1206,-2.794,0.00521655
1207,-2.793,0.00521655
1208,-2.792,0.00521655
1209,-2.791,0.00521655
1210,-2.79,0.00521655
1211,-2.789,0.00521655
1212,-2.788,0.00521655
1213,-2.787,0.00521655
1214,-2.786,0.00521655
1215,-2.785,0.00521655
1216,-2.784,0.00521655
1217,-2.783,0.00521655
1218,-2.782,0.00521655
1219,-2.781,0.00521655
1220,-2.78,0.00521655
1221,-2.779,0.00521655
1222,-2.778,0.00521655
1223,-2.777,0.00521655
1224,-2.776,0.00521655
1225,-2.775,0.00521655
1226,-2.774,0.00521655
1227,-2.773,0.00521655
1228,-2.772,0.00521655
1229,-2.771,0.00521655
1230,-2.77,0.00521655
1231,-2.769,0.00521655
1232,-2.768,0.00521655
1233,-2.767,0.00521655
1234,-2.766,0.00521655
1235,-2.765,0.00521655
1236,-2.764,0.00521655
1237,-2.763,0.00521655
1238,-2.762,0.00521655
1239,-2.761,0.00521655
1240,-2.76,0.00521655
1241,-2.759,0.00521655
1242,-2.758,0.00521655
1243,-2.757,0.00521655
1244,-2.756,0.00521655
1245,-2.755,0.00521655
1246,-2.754,0.00521655
1247,-2.753,0.00521655
1248,-2.752,0.00521655
1249,-2.751,0.00521655
1250,-2.75,0.00521655
1251,-2.749,0.00521655
1252,-2.748,0.00521655
1253,-2.747,0.00521655
1254,-2.746,0.00521655
1255,-2.745,0.0034777
1256,-2.744,0.0069554
1257,-2.743,0.0034777
1258,-2.742,0.00521655
1259,-2.741,0.00521655
1260,-2.74,0.00521655
1261,-2.739,0.00521655
1262,-2.738,0.00521655
1263,-2.737,0.00521655
1264,-2.736,0.00521655
1265,-2.735,0.00521655
1266,-2.734,0.00521655
1267,-2.733,0.00521655
1268,-2.732,0.00521655
1269,-2.731,0.00521655
1270,-2.73,0.00521655
1271,-2.729,0.00521655
1272,-2.728,0.00521655
1273,-2.727,0.00521655
1274,-2.726,0.00521655
1275,-2.725,0.00521655
1276,-2.724,0.00521655
1277,-2.723,0.00521655
1278,-2.722,0.00521655
1279,-2.721,0.00521655
1280,-2.72,0.00521655
1281,-2.719,0.00521655
1282,-2.718,0.00521655
1283,-2.717,0.00521655
1284,-2.716,0.00521655
1285,-2.715,0.00521655
1286,-2.714,0.00521655
1287,-2.713,0.00521655
1288,-2.712,0.00521655
1289,-2.711,0.00521655
1290,-2.71,0.00521655
1291,-2.709,0.00521655
1292,-2.708,0.00521655
1293,-2.707,0.00521655
1294,-2.706,0.00521655
1295,-2.705,0.00521655
1296,-2.704,0.00521655
1297,-2.703,0.00521655
1298,-2.702,0.00521655
1299,-2.701,0.00521655
1300,-2.7,0.00521655
1301,-2.699,0.00521655
1302,-2.698,0.00521655
1303,-2.697,0.00521655
1304,-2.696,0.00521655
1305,-2.695,0.00521655
1306,-2.694,0.00521655
1307,-2.693,0.00521655
1308,-2.692,0.00521655
1309,-2.691,0.00521655
1310,-2.69,0.00521655
1311,-2.689,0.00521655
1312,-2.688,0.00521655
1313,-2.687,0.00521655
1314,-2.686,0.00521655
1315,-2.685,0.00521655
1316,-2.684,0.00521655
1317,-2.683,0.00521655
1318,-2.682,0.00521655
1319,-2.681,0.00521655
1320,-2.68,0.00521655
1321,-2.679,0.00521655
1322,-2.678,0.00521655
1323,-2.677,0.00521655
1324,-2.676,0.00521655
1325,-2.675,0.00521655
1326,-2.674,0.00521655
1327,-2.673,0.00521655
1328,-2.672,0.00521655
1329,-2.671,0.00521655
1330,-2.67,0.00521655
1331,-2.669,0.00521655
1332,-2.668,0.00521655
1333,-2.667,0.00521655
1334,-2.666,0.00521655
1335,-2.665,0.00521655
1336,-2.664,0.00521655
1337,-2.663,0.00521655
1338,-2.662,0.00521655
1339,-2.661,0.00521655
1340,-2.66,0.00521655
1341,-2.659,0.00521655
1342,-2.658,0.00521655
1343,-2.657,0.00521655
1344,-2.656,0.00521655
1345,-2.655,0.00521655
1346,-2.654,0.00521655
1347,-2.653,0.00521655
1348,-2.652,0.00521655
1349,-2.651,0.00521655
1350,-2.65,0.00521655
1351,-2.649,0.00521655
1352,-2.648,0.00521655
1353,-2.647,0.00521655
1354,-2.646,0.00521655
1355,-2.645,0.0034777
1356,-2.644,0.0069554
1357,-2.643,0.0034777
1358,-2.642,0.00521655
1359,-2.641,0.00521655
1360,-2.64,0.00521655
1361,-2.639,0.00521655
1362,-2.638,0.00521655
1363,-2.637,0.00521655
1364,-2.636,0.00521655
1365,-2.635,0.00521655
1366,-2.634,0.00521655
1367,-2.633,0.00521655
1368,-2.632,0.00521655
1369,-2.631,0.00521655
1370,-2.63,0.00521655
1371,-2.629,0.00521655
1372,-2.628,0.00521655
1373,-2.627,0.00521655
1374,-2.626,0.00521655
1375,-2.625,0.00521655
1376,-2.624,0.00521655
1377,-2.623,0.00521655
1378,-2.622,0.00521655
1379,-2.621,0.00521655
1380,-2.62,0.00521655
1381,-2.619,0.00521655
1382,-2.618,0.00521655
1383,-2.617,0.00521655
1384,-2.616,0.00521655
1385,-2.615,0.00521655
1386,-2.614,0.00521655
1387,-2.613,0.00521655
1388,-2.612,0.00521655
1389,-2.611,0.00521655
1390,-2.61,0.00521655
1391,-2.609,0.00521655
1392,-2.608,0.00521655
1393,-2.607,0.00521655
1394,-2.606,0.00521655
1395,-2.605,0.00521655
1396,-2.604,0.00521655
1397,-2.603,0.00521655
1398,-2.602,0.00521655
1399,-2.601,0.00521655
1400,-2.6,0.00521655
1401,-2.599,0.00521655
1402,-2.598,0.00521655
1403,-2.597,0.00521655
1404,-2.596,0.00521655
1405,-2.595,0.0034777
1406,-2.594,0.0069554
1407,-2.593,0.0034777
1408,-2.592,0.00521655
1409,-2.591,0.00521655
1410,-2.59,0.00521655
1411,-2.589,0.00521655
1412,-2.588,0.00521655
1413,-2.587,0.00521655
1414,-2.586,0.00521655
1415,-2.585,0.00521655
1416,-2.584,0.00521655
1417,-2.583,0.00521655
1418,-2.582,0.00521655
1419,-2.581,0.00521655
1420,-2.58,0.00521655
1421,-2.579,0.00521655
1422,-2.578,0.00521655
1423,-2.577,0.00521655
1424,-2.576,0.00521655
1425,-2.575,0.00521655
1426,-2.574,0.00521655
1427,-2.573,0.00521655
1428,-2.572,0.00521655
1429,-2.571,0.00521655
1430,-2.57,0.00521655
1431,-2.569,0.00521655
1432,-2.568,0.00521655
1433,-2.567,0.00521655
1434,-2.566,0.00521655
1435,-2.565,0.00521655
1436,-2.564,0.00521655
1437,-2.563,0.00521655
1438,-2.562,0.00521655
1439,-2.561,0.00521655
1440,-2.56,0.00521655
1441,-2.559,0.00521655
1442,-2.558,0.00521655
1443,-2.557,0.00521655
1444,-2.556,0.00521655
1445,-2.555,0.00521655
1446,-2.554,0.00521655
1447,-2.553,0.00521655
1448,-2.552,0.00521655
1449,-2.551,0.00521655
1450,-2.55,0.00521655
1451,-2.549,0.00521655
1452,-2.548,0.00521655
1453,-2.547,0.00521655
1454,-2.546,0.00521655
1455,-2.545,0.00521655
1456,-2.544,0.00521655
1457,-2.543,0.00521655
1458,-2.542,0.00521655
1459,-2.541,0.00521655
1460,-2.54,0.00521655
1461,-2.539,0.00521655
1462,-2.538,0.00521655
1463,-2.537,0.00521655
1464,-2.536,0.00521655
1465,-2.535,0.00521655
1466,-2.534,0.00521655
1467,-2.533,0.00521655
1468,-2.532,0.00521655
1469,-2.531,0.00521655
1470,-2.53,0.00521655
1471,-2.529,0.00521655
1472,-2.528,0.00521655
1473,-2.527,0.00521655
1474,-2.526,0.00521655
1475,-2.525,0.00521655
1476,-2.524,0.00521655
1477,-2.523,0.00521655
1478,-2.522,0.00521655
1479,-2.521,0.00521655
1480,-2.52,0.00521655
1481,-2.519,0.00521655
1482,-2.518,0.00521655
1483,-2.517,0.00521655
1484,-2.516,0.00521655
1485,-2.515,0.00521655
1486,-2.514,0.00521655
1487,-2.513,0.00521655
1488,-2.512,0.00521655
1489,-2.511,0.00521655
1490,-2.51,0.00521655
1491,-2.509,0.00521655
1492,-2.508,0.00521655
1493,-2.507,0.00521655
1494,-2.506,0.00521655
1495,-2.505,0.00521655
1496,-2.504,0.00521655
1497,-2.503,0.00521655
1498,-2.502,0.00521655
1499,-2.501,0.00521655
1500,-2.5,0.00521655
1501,-2.499,0.00521655
1502,-2.498,0.00521655
1503,-2.497,0.00521655
1504,-2.496,0.00521655
1505,-2.495,0.00521655
1506,-2.494,0.00521655
1507,-2.493,0.00521655
1508,-2.492,0.00521655
1509,-2.491,0.00521655
1510,-2.49,0.00521655
1511,-2.489,0.00521655
1512,-2.488,0.00521655
1513,-2.487,0.00521655
1514,-2.486,0.00521655
1515,-2.485,0.00521655
1516,-2.484,0.00521655
1517,-2.483,0.00521655
1518,-2.482,0.00521655
1519,-2.481,0.00521655
1520,-2.48,0.00521655
1521,-2.479,0.00521655
1522,-2.478,0.00521655
1523,-2.477,0.00521655
1524,-2.476,0.00521655
1525,-2.475,0.00521655
1526,-2.474,0.00521655
1527,-2.473,0.00521655
1528,-2.472,0.00521655
1529,-2.471,0.00521655
1530,-2.47,0.00521655
1531,-2.469,0.00521655
1532,-2.468,0.00521655
1533,-2.467,0.00521655
1534,-2.466,0.00521655
1535,-2.465,0.00521655
1536,-2.464,0.00521655
1537,-2.463,0.00521655
1538,-2.462,0.00521655
1539,-2.461,0.00521655
1540,-2.46,0.00521655
1541,-2.459,0.00521655
1542,-2.458,0.00521655
1543,-2.457,0.00521655
1544,-2.456,0.00521655
1545,-2.455,0.00521655
1546,-2.454,0.00173885
1547,-2.453,0.0625986
1548,-2.452,0.170407
1549,-2.451,0.175624
1550,-2.45,0.179102
1551,-2.449,0.179102
1552,-2.448,0.179102
1553,-2.447,0.179102
1554,-2.446,0.179102
1555,-2.445,0.179102
1556,-2.444,0.179102
1557,-2.443,0.179102
1558,-2.442,0.179102
1559,-2.441,0.179102
1560,-2.44,0.179102
1561,-2.439,0.179102
1562,-2.438,0.179102
1563,-2.437,0.179102
1564,-2.436,0.179102
1565,-2.435,0.179102
1566,-2.434,0.179102
1567,-2.433,0.179102
1568,-2.432,0.179102
1569,-2.431,0.179102
1570,-2.43,0.179102
1571,-2.429,0.179102
1572,-2.428,0.179102
1573,-2.427,0.179102
1574,-2.426,0.179102
1575,-2.425,0.179102
1576,-2.424,0.179102
1577,-2.423,0.179102
1578,-2.422,0.179102
1579,-2.421,0.179102
1580,-2.42,0.179102
1581,-2.419,0.179102
1582,-2.418,0.179102
1583,-2.417,0.179102
1584,-2.416,0.179102
1585,-2.415,0.179102
1586,-2.414,0.179102
1587,-2.413,0.179102
1588,-2.412,0.179102
1589,-2.411,0.179102
1590,-2.41,0.179102
1591,-2.409,0.179102
1592,-2.408,0.179102
1593,-2.407,0.179102
1594,-2.406,0.179102
1595,-2.405,0.179102
1596,-2.404,0.179102
1597,-2.403,0.179102
1598,-2.402,0.179102
1599,-2.401,0.179102
1600,-2.4,0.179102
1601,-2.399,0.179102
1602,-2.398,0.179102
1603,-2.397,0.179102
1604,-2.396,0.179102
1605,-2.395,0.179102
1606,-2.394,0.179102
1607,-2.393,0.179102
1608,-2.392,0.179102
1609,-2.391,0.179102
1610,-2.39,0.179102
1611,-2.389,0.179102
1612,-2.388,0.179102
1613,-2.387,0.179102
1614,-2.386,0.179102
1615,-2.385,0.179102
1616,-2.384,0.179102
1617,-2.383,0.179102
1618,-2.382,0.179102
1619,-2.381,0.179102
1620,-2.38,0.179102
1621,-2.379,0.179102
1622,-2.378,0.179102
1623,-2.377,0.179102
1624,-2.376,0.179102
1625,-2.375,0.179102
1626,-2.374,0.179102
1627,-2.373,0.179102
1628,-2.372,0.179102
1629,-2.371,0.179102
1630,-2.37,0.179102
1631,-2.369,0.179102
1632,-2.368,0.179102
1633,-2.367,0.179102
1634,-2.366,0.179102
1635,-2.365,0.179102
1636,-2.364,0.179102
1637,-2.363,0.179102
1638,-2.362,0.179102
1639,-2.361,0.179102
1640,-2.36,0.179102
1641,-2.359,0.179102
1642,-2.358,0.179102
1643,-2.357,0.179102
1644,-2.356,0.179102
1645,-2.355,0.179102
1646,-2.354,0.179102
1647,-2.353,0.179102
1648,-2.352,0.179102
1649,-2.351,0.179102
1650,-2.35,0.179102
1651,-2.349,0.179102
1652,-2.348,0.179102
1653,-2.347,0.179102
1654,-2.346,0.179102
1655,-2.345,0.179102
1656,-2.344,0.179102
1657,-2.343,0.179102
1658,-2.342,0.179102
1659,-2.341,0.179102
1660,-2.34,0.179102
1661,-2.339,0.179102
1662,-2.338,0.179102
1663,-2.337,0.179102
1664,-2.336,0.179102
1665,-2.335,0.179102
1666,-2.334,0.179102
1667,-2.333,0.179102
1668,-2.332,0.179102
1669,-2.331,0.179102
1670,-2.33,0.179102
1671,-2.329,0.179102
1672,-2.328,0.179102
1673,-2.327,0.179102
1674,-2.326,0.179102
1675,-2.325,0.179102
1676,-2.324,0.179102
1677,-2.323,0.179102
1678,-2.322,0.179102
1679,-2.321,0.179102
1680,-2.32,0.184318
1681,-2.319,0.0782483
1682,-2.318,0.0034777
1683,-2.317,0.00521655
1684,-2.316,0.00521655
1685,-2.315,0.00521655
1686,-2.314,0.00521655
1687,-2.313,0.00521655
1688,-2.312,0.00521655
1689,-2.311,0.00521655
1690,-2.31,0.00521655
1691,-2.309,0.00521655
1692,-2.308,0.00521655
1693,-2.307,0.00521655
1694,-2.306,0.00521655
1695,-2.305,0.00521655
1696,-2.304,0.00521655
1697,-2.303,0.00521655
1698,-2.302,0.00521655
1699,-2.301,0.00521655
1700,-2.3,0.00521655
1701,-2.299,0.00521655
1702,-2.298,0.00521655
1703,-2.297,0.00521655
1704,-2.296,0.00521655
1705,-2.295,0.00521655
1706,-2.294,0.00521655
1707,-2.293,0.00521655
1708,-2.292,0.00521655
1709,-2.291,0.00521655
1710,-2.29,0.00521655
1711,-2.289,0.00521655
1712,-2.288,0.00521655
1713,-2.287,0.00521655
1714,-2.286,0.00521655
1715,-2.285,0.00521655
1716,-2.284,0.00521655
1717,-2.283,0.00521655
1718,-2.282,0.00521655
1719,-2.281,0.00521655
1720,-2.28,0.00521655
1721,-2.279,0.00521655
1722,-2.278,0.00521655
1723,-2.277,0.00521655
1724,-2.276,0.00521655
1725,-2.275,0.00521655
1726,-2.274,0.00521655
1727,-2.273,0.00521655
1728,-2.272,0.00521655
1729,-2.271,0.00521655
1730,-2.27,0.00521655
1731,-2.269,0.00521655
1732,-2.268,0.0034777
1733,-2.267,0.0069554
1734,-2.266,0.00521655
1735,-2.265,0.00521655
1736,-2.264,0.00521655
1737,-2.263,0.00521655
1738,-2.262,0.00521655
1739,-2.261,0.00521655
1740,-2.26,0.00521655
1741,-2.259,0.00521655
1742,-2.258,0.00521655
1743,-2.257,0.00521655
1744,-2.256,0.00521655
1745,-2.255,0.00521655
1746,-2.254,0.00521655
1747,-2.253,0.00521655
1748,-2.252,0.00521655
1749,-2.251,0.00521655
1750,-2.25,0.00521655
1751,-2.249,0.00521655
1752,-2.248,0.00521655
1753,-2.247,0.00521655
1754,-2.246,0.00521655
1755,-2.245,0.00521655
1756,-2.244,0.00521655
1757,-2.243,0.00521655
1758,-2.242,0.00521655
1759,-2.241,0.00521655
1760,-2.24,0.00521655
1761,-2.239,0.00521655
1762,-2.238,0.00521655
1763,-2.237,0.00521655
1764,-2.236,0.00521655
1765,-2.235,0.00521655
1766,-2.234,0.00521655
1767,-2.233,0.00521655
1768,-2.232,0.00521655
1769,-2.231,0.00521655
1770,-2.23,0.00521655
1771,-2.229,0.00521655
1772,-2.228,0.00521655
1773,-2.227,0.00521655
1774,-2.226,0.00521655
1775,-2.225,0.00521655
1776,-2.224,0.00521655
1777,-2.223,0.00521655
1778,-2.222,0.00521655
1779,-2.221,0.00521655
1780,-2.22,0.00521655
1781,-2.219,0.00521655
1782,-2.218,0.00521655
1783,-2.217,0.00521655
1784,-2.216,0.00521655
1785,-2.215,0.00521655
1786,-2.214,0.00521655
1787,-2.213,0.00521655
1788,-2.212,0.00521655
1789,-2.211,0.00521655
1790,-2.21,0.00521655
1791,-2.209,0.00521655
1792,-2.208,0.00521655
1793,-2.207,0.00521655
1794,-2.206,0.00521655
1795,-2.205,0.00521655
1796,-2.204,0.00521655
1797,-2.203,0.00521655
1798,-2.202,0.00521655
1799,-2.201,0.00521655
1800,-2.2,0.00521655
1801,-2.199,0.00521655
1802,-2.198,0.00521655
1803,-2.197,0.00521655
1804,-2.196,0.00521655
1805,-2.195,0.00521655
1806,-2.194,0.00521655
1807,-2.193,0.00521655
1808,-2.192,0.00521655
1809,-2.191,0.00521655
1810,-2.19,0.00521655
1811,-2.189,0.00521655
1812,-2.188,0.00521655
1813,-2.187,0.00521655
1814,-2.186,0.00521655
1815,-2.185,0.00521655
1816,-2.184,0.00521655
1817,-2.183,0.00521655
1818,-2.182,0.00521655
1819,-2.181,0.00521655
1820,-2.18,0.00521655
1821,-2.179,0.00521655
1822,-2.178,0.00521655
1823,-2.177,0.00521655
1824,-2.176,0.00521655
1825,-2.175,0.00521655
1826,-2.174,0.00521655
1827,-2.173,0.00521655
1828,-2.172,0.00521655
1829,-2.171,0.00521655
1830,-2.17,0.00521655
1831,-2.169,0.00521655
1832,-2.168,0.00521655
1833,-2.167,0.00521655
1834,-2.166,0.00521655
1835,-2.165,0.00521655
1836,-2.164,0.00521655
1837,-2.163,0.00521655
1838,-2.162,0.00521655
1839,-2.161,0.00521655
1840,-2.16,0.00521655
1841,-2.159,0.00521655
1842,-2.158,0.00521655
1843,-2.157,0.00521655
1844,-2.156,0.00521655
1845,-2.155,0.00521655
1846,-2.154,0.00521655
1847,-2.153,0.00521655
1848,-2.152,0.00521655
1849,-2.151,0.00521655
1850,-2.15,0.00521655
1851,-2.149,0.00521655
1852,-2.148,0.00521655
1853,-2.147,0.00521655
1854,-2.146,0.00521655
1855,-2.145,0.00521655
1856,-2.144,0.00521655
1857,-2.143,0.00521655
1858,-2.142,0.00521655
1859,-2.141,0.00521655
1860,-2.14,0.00521655
1861,-2.139,0.00521655
1862,-2.138,0.00521655
1863,-2.137,0.00521655
1864,-2.136,0.00521655
1865,-2.135,0.00521655
1866,-2.134,0.00521655
1867,-2.133,0.00521655
1868,-2.132,0.00521655
1869,-2.131,0.00521655
1870,-2.13,0.00521655
1871,-2.129,0.00521655
1872,-2.128,0.00521655
1873,-2.127,0.00521655
1874,-2.126,0.00521655
1875,-2.125,0.00521655
1876,-2.124,0.00521655
1877,-2.123,0.00521655
1878,-2.122,0.00521655
1879,-2.121,0.00521655
1880,-2.12,0.00521655
1881,-2.119,0.00521655
1882,-2.118,0.00521655
1883,-2.117,0.00521655
1884,-2.116,0.00521655
1885,-2.115,0.00521655
1886,-2.114,0.00521655
1887,-2.113,0.00521655
1888,-2.112,0.00521655
1889,-2.111,0.00521655
1890,-2.11,0.00521655
1891,-2.109,0.00521655
1892,-2.108,0.00521655
1893,-2.107,0.00521655
1894,-2.106,0.00521655
1895,-2.105,0.00521655
1896,-2.104,0.00521655
1897,-2.103,0.00521655
1898,-2.102,0.00521655
1899,-2.101,0.00521655
1900,-2.1,0.00521655
1901,-2.099,0.00521655
1902,-2.098,0.00521655
1903,-2.097,0.00521655
1904,-2.096,0.00521655
1905,-2.095,0.00521655
1906,-2.094,0.00521655
1907,-2.093,0.00521655
1908,-2.092,0.00521655
1909,-2.091,0.00521655
1910,-2.09,0.00521655
1911,-2.089,0.00521655
1912,-2.088,0.00521655
1913,-2.087,0.00521655
1914,-2.086,0.00521655
1915,-2.085,0.00521655
1916,-2.084,0.00521655
1917,-2.083,0.00521655
1918,-2.082,0.00521655
1919,-2.081,0.00521655
1920,-2.08,0.00521655
1921,-2.079,0.00521655
1922,-2.078,0.00521655
1923,-2.077,0.00521655
1924,-2.076,0.00521655
1925,-2.075,0.00521655
1926,-2.074,0.00521655
1927,-2.073,0.00521655
1928,-2.072,0.00521655
1929,-2.071,0.00521655
1930,-2.07,0.00521655
1931,-2.069,0.00521655
1932,-2.068,0.00521655
1933,-2.067,0.00521655
1934,-2.066,0.00521655
1935,-2.065,0.00521655
1936,-2.064,0.00521655
1937,-2.063,0.00521655
1938,-2.062,0.00521655
1939,-2.061,0.00521655
1940,-2.06,0.00521655
1941,-2.059,0.00521655
1942,-2.058,0.00521655
1943,-2.057,0.00521655
1944,-2.056,0.00521655
1945,-2.055,0.00521655
1946,-2.054,0.00521655
1947,-2.053,0.00521655
1948,-2.052,0.00521655
1949,-2.051,0.00521655
1950,-2.05,0.00521655
1951,-2.049,0.00521655
1952,-2.048,0.00521655
1953,-2.047,0.00521655
1954,-2.046,0.00521655
1955,-2.045,0.00521655
1956,-2.044,0.00521655
1957,-2.043,0.00521655
1958,-2.042,0.00521655
1959,-2.041,0.00521655
1960,-2.04,0.00521655
1961,-2.039,0.00521655
1962,-2.038,0.00521655
1963,-2.037,0.00521655
1964,-2.036,0.00521655
1965,-2.035,0.00521655
1966,-2.034,0.00521655
1967,-2.033,0.00521655
1968,-2.032,0.00521655
1969,-2.031,0.00521655
1970,-2.03,0.00521655
1971,-2.029,0.00521655
1972,-2.028,0.00521655
1973,-2.027,0.00521655
1974,-2.026,0.00521655
1975,-2.025,0.00521655
1976,-2.024,0.00521655
1977,-2.023,0.00521655
1978,-2.022,0.00521655
1979,-2.021,0.00521655
1980,-2.02,0.00521655
1981,-2.019,0.00521655
1982,-2.018,0.0034777
1983,-2.017,0.00521655
1984,-2.016,0.00521655
1985,-2.015,0.00521655
1986,-2.014,0.00521655
1987,-2.013,0.00521655
1988,-2.012,0.00521655
1989,-2.011,0.00521655
1990,-2.01,0.00521655
1991,-2.009,0.00521655
1992,-2.008,0.00521655
1993,-2.007,0.00521655
1994,-2.006,0.00521655
1995,-2.005,0.00521655
1996,-2.004,0.00521655
1997,-2.003,0.00521655
1998,-2.002,0.00521655
1999,-2.001,0.00521655
2000,-2,0.00521655
2001,-1.999,0.00521655
2002,-1.998,0.00521655
2003,-1.997,0.00521655
2004,-1.996,0.00521655
2005,-1.995,0.00521655
2006,-1.994,0.00521655
2007,-1.993,0.00521655
2008,-1.992,0.00521655
2009,-1.991,0.00521655
2010,-1.99,0.00521655
2011,-1.989,0.00521655
2012,-1.988,0.00521655
2013,-1.987,0.00521655
2014,-1.986,0.00521655
2015,-1.985,0.00521655
2016,-1.984,0.00521655
2017,-1.983,0.00521655
2018,-1.982,0.00521655
2019,-1.981,0.00521655
2020,-1.98,0.00521655
2021,-1.979,0.00521655
2022,-1.978,0.00521655
2023,-1.977,0.00521655
2024,-1.976,0.00521655
2025,-1.975,0.00521655
2026,-1.974,0.00521655
2027,-1.973,0.00521655
2028,-1.972,0.00521655
2029,-1.971,0.00521655
2030,-1.97,0.00521655
2031,-1.969,0.00521655
2032,-1.968,0.0034777
2033,-1.967,0.00521655
2034,-1.966,0.00521655
2035,-1.965,0.00521655
2036,-1.964,0.00521655
2037,-1.963,0.00521655
2038,-1.962,0.00521655
2039,-1.961,0.00521655
2040,-1.96,0.00521655
2041,-1.959,0.00521655
2042,-1.958,0.00521655
2043,-1.957,0.00521655
2044,-1.956,0.00521655
2045,-1.955,0.00521655
2046,-1.954,0.00521655
2047,-1.953,0.00521655
2048,-1.952,0.00521655
2049,-1.951,0.00521655
2050,-1.95,0.00521655
2051,-1.949,0.00521655
2052,-1.948,0.00521655
2053,-1.947,0.00521655
2054,-1.946,0.00521655
2055,-1.945,0.00521655
2056,-1.944,0.00521655
2057,-1.943,0.00521655
2058,-1.942,0.00521655
2059,-1.941,0.00521655
2060,-1.94,0.00521655
2061,-1.939,0.00521655
2062,-1.938,0.00521655
2063,-1.937,0.00521655
2064,-1.936,0.00521655
2065,-1.935,0.00521655
2066,-1.934,0.00521655
2067,-1.933,0.00521655
2068,-1.932,0.00521655
2069,-1.931,0.00521655
2070,-1.93,0.00521655
2071,-1.929,0.00521655
2072,-1.928,0.00521655
2073,-1.927,0.00521655
2074,-1.926,0.00521655
2075,-1.925,0.00521655
2076,-1.924,0.00521655
2077,-1.923,0.00521655
2078,-1.922,0.00521655
2079,-1.921,0.00521655
2080,-1.92,0.00521655
2081,-1.919,0.00521655
2082,-1.918,0.00521655
2083,-1.917,0.00521655
2084,-1.916,0.00521655
2085,-1.915,0.00521655
2086,-1.914,0.00521655
2087,-1.913,0.00521655
2088,-1.912,0.00521655
2089,-1.911,0.00521655
2090,-1.91,0.00521655
2091,-1.909,0.00521655
2092,-1.908,0.00521655
2093,-1.907,0.00521655
2094,-1.906,0.00521655
2095,-1.905,0.00521655
2096,-1.904,0.00521655
2097,-1.903,0.00521655
2098,-1.902,0.00521655
2099,-1.901,0.00521655
2100,-1.9,0.00521655
2101,-1.899,0.00521655
2102,-1.898,0.00521655
2103,-1.897,0.00521655
2104,-1.896,0.00521655
2105,-1.895,0.00521655
2106,-1.894,0.00521655
2107,-1.893,0.00521655
2108,-1.892,0.00521655
2109,-1.891,0.00521655
2110,-1.89,0.00521655
2111,-1.889,0.00521655
2112,-1.888,0.00521655
2113,-1.887,0.00521655
2114,-1.886,0.00521655
2115,-1.885,0.00521655
2116,-1.884,0.00521655
2117,-1.883,0.00521655
2118,-1.882,0.00521655
2119,-1.881,0.00521655
2120,-1.88,0.00521655
2121,-1.879,0.00521655
2122,-1.878,0.00521655
2123,-1.877,0.00521655
2124,-1.876,0.00521655
2125,-1.875,0.00521655
2126,-1.874,0.00521655
2127,-1.873,0.00521655
2128,-1.872,0.00521655
2129,-1.871,0.00521655
2130,-1.87,0.00521655
2131,-1.869,0.00521655
2132,-1.868,0.00521655
2133,-1.867,0.00521655
2134,-1.866,0.00521655
2135,-1.865,0.00521655
2136,-1.864,0.00521655
2137,-1.863,0.00521655
2138,-1.862,0.00521655
2139,-1.861,0.00521655
2140,-1.86,0.00521655
2141,-1.859,0.00521655
2142,-1.858,0.00521655
2143,-1.857,0.00521655
2144,-1.856,0.00521655
2145,-1.855,0.00521655
2146,-1.854,0.00521655
2147,-1.853,0.00521655
2148,-1.852,0.00521655
2149,-1.851,0.00521655
2150,-1.85,0.00521655
2151,-1.849,0.00521655
2152,-1.848,0.00521655
2153,-1.847,0.00521655
2154,-1.846,0.00521655
2155,-1.845,0.00521655
2156,-1.844,0.00521655
2157,-1.843,0.00521655
2158,-1.842,0.00521655
2159,-1.841,0.00521655
2160,-1.84,0.00521655
2161,-1.839,0.00521655
2162,-1.838,0.00521655
2163,-1.837,0.00521655
2164,-1.836,0.00521655
2165,-1.835,0.00521655
2166,-1.834,0.00521655
2167,-1.833,0.00521655
2168,-1.832,0.00521655
2169,-1.831,0.00521655
2170,-1.83,0.00521655
2171,-1.829,0.00521655
2172,-1.828,0.00521655
2173,-1.827,0.00521655
2174,-1.826,0.00521655
2175,-1.825,0.00521655
2176,-1.824,0.00521655
2177,-1.823,0.00521655
2178,-1.822,0.00521655
2179,-1.821,0.00521655
2180,-1.82,0.00521655
2181,-1.819,0.00521655
2182,-1.818,0.00521655
2183,-1.817,0.00521655
2184,-1.816,0.00521655
2185,-1.815,0.00521655
2186,-1.814,0.00521655
2187,-1.813,0.00521655
2188,-1.812,0.00521655
2189,-1.811,0.00521655
2190,-1.81,0.00521655
2191,-1.809,0.00521655
2192,-1.808,0.00521655
2193,-1.807,0.00521655
2194,-1.806,0.00521655
2195,-1.805,0.00521655
2196,-1.804,0.00521655
2197,-1.803,0.00521655
2198,-1.802,0.00521655
2199,-1.801,0.00521655
2200,-1.8,0.00521655
2201,-1.799,0.00521655
2202,-1.798,0.00521655
2203,-1.797,0.00521655
2204,-1.796,0.00521655
2205,-1.795,0.00521655
2206,-1.794,0.00521655
2207,-1.793,0.00521655
2208,-1.792,0.00521655
2209,-1.791,0.00521655
2210,-1.79,0.00521655
2211,-1.789,0.00521655
2212,-1.788,0.00521655
2213,-1.787,0.00521655
2214,-1.786,0.00521655
2215,-1.785,0.00521655
2216,-1.784,0.00521655
2217,-1.783,0.00521655
2218,-1.782,0.00521655
2219,-1.781,0.00521655
2220,-1.78,0.00521655
2221,-1.779,0.00521655
2222,-1.778,0.00521655
2223,-1.777,0.00521655
2224,-1.776,0.00521655
2225,-1.775,0.00521655
2226,-1.774,0.00521655
2227,-1.773,0.00521655
2228,-1.772,0.00521655
2229,-1.771,0.00521655
2230,-1.77,0.00521655
2231,-1.769,0.00521655
2232,-1.768,0.00521655
2233,-1.767,0.00521655
2234,-1.766,0.00521655
2235,-1.765,0.00521655
2236,-1.764,0.00521655
2237,-1.763,0.00521655
2238,-1.762,0.00521655
2239,-1.761,0.00521655
2240,-1.76,0.00521655
2241,-1.759,0.00521655
2242,-1.758,0.00521655
2243,-1.757,0.00521655
2244,-1.756,0.00521655
2245,-1.755,0.00521655
2246,-1.754,0.00521655
2247,-1.753,0.00521655
2248,-1.752,0.00521655
2249,-1.751,0.00521655
2250,-1.75,0.00521655
2251,-1.749,0.00521655
2252,-1.748,0.00521655
2253,-1.747,0.00521655
2254,-1.746,0.00521655
2255,-1.745,0.00521655
2256,-1.744,0.00521655
2257,-1.743,0.00521655
2258,-1.742,0.00521655
2259,-1.741,0.00521655
2260,-1.74,0.00521655
2261,-1.739,0.00521655
2262,-1.738,0.00521655
2263,-1.737,0.00521655
2264,-1.736,0.00521655
2265,-1.735,0.00521655
2266,-1.734,0.00521655
2267,-1.733,0.00521655
2268,-1.732,0.00521655
2269,-1.731,0.00521655
2270,-1.73,0.00521655
2271,-1.729,0.00521655
2272,-1.728,0.00521655
2273,-1.727,0.00521655
2274,-1.726,0.00521655
2275,-1.725,0.00521655
2276,-1.724,0.00521655
2277,-1.723,0.00521655
2278,-1.722,0.00521655
2279,-1.721,0.00521655
2280,-1.72,0.00521655
2281,-1.719,0.00521655
2282,-1.718,0.00521655
2283,-1.717,0.0034777
2284,-1.716,0.00521655
2285,-1.715,0.00521655
2286,-1.714,0.00521655
2287,-1.713,0.00521655
2288,-1.712,0.00521655
2289,-1.711,0.00521655
2290,-1.71,0.00521655
2291,-1.709,0.00521655
2292,-1.708,0.00521655
2293,-1.707,0.00521655
2294,-1.706,0.00521655
2295,-1.705,0.00521655
2296,-1.704,0.00521655
2297,-1.703,0.00521655
2298,-1.702,0.00521655
2299,-1.701,0.00521655
2300,-1.7,0.00521655
2301,-1.699,0.00521655
2302,-1.698,0.00521655
2303,-1.697,0.00521655
2304,-1.696,0.00521655
2305,-1.695,0.00521655
2306,-1.694,0.00521655
2307,-1.693,0.00521655
2308,-1.692,0.00521655
2309,-1.691,0.00521655
2310,-1.69,0.00521655
2311,-1.689,0.00521655
2312,-1.688,0.00521655
2313,-1.687,0.00521655
2314,-1.686,0.00521655
2315,-1.685,0.00521655
2316,-1.684,0.00521655
2317,-1.683,0.00521655
2318,-1.682,0.00521655
2319,-1.681,0.00521655
2320,-1.68,0.00521655
2321,-1.679,0.00521655
2322,-1.678,0.00521655
2323,-1.677,0.00521655
2324,-1.676,0.00521655
2325,-1.675,0.00521655
2326,-1.674,0.00521655
2327,-1.673,0.00521655
2328,-1.672,0.00521655
2329,-1.671,0.00521655
2330,-1.67,0.00521655
2331,-1.669,0.00521655
2332,-1.668,0.00521655
2333,-1.667,0.0034777
2334,-1.666,0.00521655
2335,-1.665,0.00521655
2336,-1.664,0.00521655
2337,-1.663,0.00521655
2338,-1.662,0.00521655
2339,-1.661,0.00521655
2340,-1.66,0.00521655
2341,-1.659,0.00521655
2342,-1.658,0.00521655
2343,-1.657,0.00521655
2344,-1.656,0.00521655
2345,-1.655,0.00521655
2346,-1.654,0.00521655
2347,-1.653,0.00521655
2348,-1.652,0.00521655
2349,-1.651,0.00521655
2350,-1.65,0.00521655
2351,-1.649,0.00521655
2352,-1.648,0.00521655
2353,-1.647,0.00521655
2354,-1.646,0.00521655
2355,-1.645,0.00521655
2356,-1.644,0.00521655
2357,-1.643,0.00521655
2358,-1.642,0.00521655
2359,-1.641,0.00521655
2360,-1.64,0.00521655
2361,-1.639,0.00521655
2362,-1.638,0.00521655
2363,-1.637,0.00521655
2364,-1.636,0.00521655
2365,-1.635,0.00521655
2366,-1.634,0.00521655
2367,-1.633,0.00521655
2368,-1.632,0.00521655
2369,-1.631,0.00521655
2370,-1.63,0.00521655
2371,-1.629,0.00521655
2372,-1.628,0.00521655
2373,-1.627,0.00521655
2374,-1.626,0.00521655
2375,-1.625,0.00521655
2376,-1.624,0.00521655
2377,-1.623,0.00521655
2378,-1.622,0.00521655
2379,-1.621,0.00521655
2380,-1.62,0.00521655
2381,-1.619,0.00521655
2382,-1.618,0.00521655
2383,-1.617,0.00521655
2384,-1.616,0.00521655
2385,-1.615,0.00521655
2386,-1.614,0.00521655
2387,-1.613,0.00521655
2388,-1.612,0.00521655
2389,-1.611,0.00521655
2390,-1.61,0.00521655
2391,-1.609,0.00521655
2392,-1.608,0.00521655
2393,-1.607,0.00521655
2394,-1.606,0.00521655
2395,-1.605,0.00521655
2396,-1.604,0.00521655
2397,-1.603,0.00521655
2398,-1.602,0.00521655
2399,-1.601,0.00521655
2400,-1.6,0.00521655
2401,-1.599,0.00521655
2402,-1.598,0.00521655
2403,-1.597,0.00521655
2404,-1.596,0.00521655
2405,-1.595,0.00521655
2406,-1.594,0.00521655
2407,-1.593,0.00521655
2408,-1.592,0.00521655
2409,-1.591,0.00521655
2410,-1.59,0.00521655
2411,-1.589,0.00521655
2412,-1.588,0.00521655
2413,-1.587,0.00521655
2414,-1.586,0.00521655
2415,-1.585,0.00521655
2416,-1.584,0.00521655
2417,-1.583,0.00521655
2418,-1.582,0.00521655
2419,-1.581,0.00521655
2420,-1.58,0.00521655
2421,-1.579,0.00521655
2422,-1.578,0.00521655
2423,-1.577,0.00521655
2424,-1.576,0.00521655
2425,-1.575,0.00521655
2426,-1.574,0.00521655
2427,-1.573,0.00521655
2428,-1.572,0.00521655
2429,-1.571,0.00521655
2430,-1.57,0.00521655
2431,-1.569,0.00521655
2432,-1.568,0.00521655
2433,-1.567,0.00521655
2434,-1.566,0.00521655
2435,-1.565,0.00521655
2436,-1.564,0.00521655
2437,-1.563,0.00521655
2438,-1.562,0.00521655
2439,-1.561,0.00521655
2440,-1.56,0.00521655
2441,-1.559,0.00521655
2442,-1.558,0.00521655
2443,-1.557,0.00521655
2444,-1.556,0.00521655
2445,-1.555,0.00521655
2446,-1.554,0.00521655
2447,-1.553,0.00521655
2448,-1.552,0.00521655
2449,-1.551,0.00521655
2450,-1.55,0.00521655
2451,-1.549,0.00521655
2452,-1.548,0.00521655
2453,-1.547,0.00521655
2454,-1.546,0.00521655
2455,-1.545,0.00521655
2456,-1.544,0.00521655
2457,-1.543,0.00521655
2458,-1.542,0.00521655
2459,-1.541,0.00521655
2460,-1.54,0.00521655
2461,-1.539,0.00521655
2462,-1.538,0.00521655
2463,-1.537,0.00521655
2464,-1.536,0.00521655
2465,-1.535,0.00521655
2466,-1.534,0.00521655
2467,-1.533,0.00521655
2468,-1.532,0.00521655
2469,-1.531,0.00521655
2470,-1.53,0.00521655
2471,-1.529,0.00521655
2472,-1.528,0.00521655
2473,-1.527,0.00521655
2474,-1.526,0.00521655
2475,-1.525,0.00521655
2476,-1.524,0.00521655
2477,-1.523,0.00521655
2478,-1.522,0.00521655
2479,-1.521,0.00521655
2480,-1.52,0.00521655
2481,-1.519,0.00521655
2482,-1.518,0.00521655
2483,-1.517,0.00521655
2484,-1.516,0.00521655
2485,-1.515,0.00521655
2486,-1.514,0.00521655
2487,-1.513,0.00521655
2488,-1.512,0.00521655
2489,-1.511,0.00521655
2490,-1.51,0.00521655
2491,-1.509,0.00521655
2492,-1.508,0.00521655
2493,-1.507,0.00521655
2494,-1.506,0.00521655
2495,-1.505,0.00521655
2496,-1.504,0.00521655
2497,-1.503,0.00521655
2498,-1.502,0.00521655
2499,-1.501,0.00521655
2500,-1.5,0.00521655
2501,-1.499,0.00521655
2502,-1.498,0.00521655
2503,-1.497,0.00521655
2504,-1.496,0.00521655
2505,-1.495,0.00521655
2506,-1.494,0.00521655
2507,-1.493,0.00521655
2508,-1.492,0.00521655
2509,-1.491,0.00521655
2510,-1.49,0.00521655
2511,-1.489,0.00521655
2512,-1.488,0.00521655
2513,-1.487,0.00521655
2514,-1.486,0.00521655
2515,-1.485,0.00521655
2516,-1.484,0.00521655
2517,-1.483,0.00521655
2518,-1.482,0.00521655
2519,-1.481,0.00521655
2520,-1.48,0.00521655
2521,-1.479,0.00521655
2522,-1.478,0.00521655
2523,-1.477,0.00521655
2524,-1.476,0.00521655
2525,-1.475,0.00521655
2526,-1.474,0.00521655
2527,-1.473,0.00521655
2528,-1.472,0.00521655
2529,-1.471,0.00521655
2530,-1.47,0.00521655
2531,-1.469,0.00521655
2532,-1.468,0.00521655
2533,-1.467,0.00521655
2534,-1.466,0.00521655
2535,-1.465,0.00521655
2536,-1.464,0.00521655
2537,-1.463,0.00521655
2538,-1.462,0.00521655
2539,-1.461,0.00521655
2540,-1.46,0.00521655
2541,-1.459,0.00521655
2542,-1.458,0.00521655
2543,-1.457,0.00521655
2544,-1.456,0.00521655
2545,-1.455,0.00521655
2546,-1.454,0.00521655
2547,-1.453,0.00521655
2548,-1.452,0.00521655
2549,-1.451,0.00521655
2550,-1.45,0.00521655
2551,-1.449,0.00521655
2552,-1.448,0.00521655
2553,-1.447,0.00521655
2554,-1.446,0.00521655
2555,-1.445,0.00521655
2556,-1.444,0.00521655
2557,-1.443,0.00521655
2558,-1.442,0.00521655
2559,-1.441,0.00521655
2560,-1.44,0.00521655
2561,-1.439,0.00521655
2562,-1.438,0.00521655
2563,-1.437,0.00521655
2564,-1.436,0.00521655
2565,-1.435,0.00521655
2566,-1.434,0.00521655
2567,-1.433,0.00521655
2568,-1.432,0.00521655
2569,-1.431,0.00521655
2570,-1.43,0.00521655
2571,-1.429,0.00521655
2572,-1.428,0.00521655
2573,-1.427,0.00521655
2574,-1.426,0.00521655
2575,-1.425,0.00521655
2576,-1.424,0.00521655
2577,-1.423,0.00521655
2578,-1.422,0.00521655
2579,-1.421,0.00521655
2580,-1.42,0.00521655
2581,-1.419,0.00521655
2582,-1.418,0.00521655
2583,-1.417,0.00521655
2584,-1.416,0.00521655
2585,-1.415,0.00521655
2586,-1.414,0.00521655
2587,-1.413,0.00521655
2588,-1.412,0.00521655
2589,-1.411,0.00521655
2590,-1.41,0.00521655
2591,-1.409,0.00521655
2592,-1.408,0.00521655
2593,-1.407,0.00521655
2594,-1.406,0.00521655
2595,-1.405,0.00521655
2596,-1.404,0.00521655
2597,-1.403,0.00521655
2598,-1.402,0.00521655
2599,-1.401,0.00521655
2600,-1.4,0.00521655
2601,-1.399,0.00521655
2602,-1.398,0.00521655
2603,-1.397,0.00521655
2604,-1.396,0.00521655
2605,-1.395,0.00521655
2606,-1.394,0.00521655
2607,-1.393,0.00521655
2608,-1.392,0.00521655
2609,-1.391,0.00521655
2610,-1.39,0.00521655
2611,-1.389,0.00521655
2612,-1.388,0.00521655
2613,-1.387,0.00521655
2614,-1.386,0.00521655
2615,-1.385,0.00521655
2616,-1.384,0.00521655
2617,-1.383,0.00521655
2618,-1.382,0.00521655
2619,-1.381,0.00521655
2620,-1.38,0.00521655
2621,-1.379,0.00521655
2622,-1.378,0.00521655
2623,-1.377,0.00521655
2624,-1.376,0.00521655
2625,-1.375,0.00521655
2626,-1.374,0.00521655
2627,-1.373,0.00521655
2628,-1.372,0.00521655
2629,-1.371,0.00521655
2630,-1.37,0.00521655
2631,-1.369,0.0034777
2632,-1.368,0.00521655
2633,-1.367,0.00521655
2634,-1.366,0.00521655
2635,-1.365,0.00521655
2636,-1.364,0.00521655
2637,-1.363,0.00521655
2638,-1.362,0.00521655
2639,-1.361,0.00521655
2640,-1.36,0.00521655
2641,-1.359,0.00521655
2642,-1.358,0.00521655
2643,-1.357,0.00521655
2644,-1.356,0.00521655
2645,-1.355,0.00521655
2646,-1.354,0.00521655
2647,-1.353,0.00521655
2648,-1.352,0.00521655
2649,-1.351,0.00521655
2650,-1.35,0.00521655
2651,-1.349,0.00521655
2652,-1.348,0.00521655
2653,-1.347,0.00521655
2654,-1.346,0.00521655
2655,-1.345,0.00521655
2656,-1.344,0.00521655
2657,-1.343,0.00521655
2658,-1.342,0.00521655
2659,-1.341,0.00521655
2660,-1.34,0.00521655
2661,-1.339,0.00521655
2662,-1.338,0.00521655
2663,-1.337,0.00521655
2664,-1.336,0.00521655
2665,-1.335,0.00521655
2666,-1.334,0.00521655
2667,-1.333,0.00521655
2668,-1.332,0.00521655
2669,-1.331,0.00521655
2670,-1.33,0.00521655
2671,-1.329,0.00521655
2672,-1.328,0.00521655
2673,-1.327,0.00521655
2674,-1.326,0.00521655
2675,-1.325,0.00521655
2676,-1.324,0.00521655
2677,-1.323,0.00521655
2678,-1.322,0.00521655
2679,-1.321,0.00521655
2680,-1.32,0.00521655
2681,-1.319,0.00521655
2682,-1.318,0.00521655
2683,-1.317,0.00521655
2684,-1.316,0.00521655
2685,-1.315,0.00521655
2686,-1.314,0.00521655
2687,-1.313,0.00521655
2688,-1.312,0.00521655
2689,-1.311,0.00521655
2690,-1.31,0.00521655
2691,-1.309,0.00521655
2692,-1.308,0.00521655
2693,-1.307,0.00521655
2694,-1.306,0.00521655
2695,-1.305,0.00521655
2696,-1.304,0.00521655
2697,-1.303,0.00521655
2698,-1.302,0.00521655
2699,-1.301,0.00521655
2700,-1.3,0.00521655
2701,-1.299,0.00521655
2702,-1.298,0.00521655
2703,-1.297,0.00521655
2704,-1.296,0.00521655
2705,-1.295,0.00521655
2706,-1.294,0.00521655
2707,-1.293,0.00521655
2708,-1.292,0.00521655
2709,-1.291,0.00521655
2710,-1.29,0.00521655
2711,-1.289,0.00521655
2712,-1.288,0.00521655
2713,-1.287,0.00521655
2714,-1.286,0.00521655
2715,-1.285,0.00521655
2716,-1.284,0.00521655
2717,-1.283,0.00521655
2718,-1.282,0.00521655
2719,-1.281,0.00521655
2720,-1.28,0.00521655
2721,-1.279,0.00521655
2722,-1.278,0.00521655
2723,-1.277,0.00521655
2724,-1.276,0.00521655
2725,-1.275,0.00521655
2726,-1.274,0.00521655
2727,-1.273,0.00521655
2728,-1.272,0.00521655
2729,-1.271,0.00521655
2730,-1.27,0.00521655
2731,-1.269,0.00521655
2732,-1.268,0.00521655
2733,-1.267,0.00521655
2734,-1.266,0.00521655
2735,-1.265,0.00521655
2736,-1.264,0.00521655
2737,-1.263,0.00521655
2738,-1.262,0.00521655
2739,-1.261,0.00521655
2740,-1.26,0.00521655
2741,-1.259,0.00521655
2742,-1.258,0.00521655
2743,-1.257,0.00521655
2744,-1.256,0.00521655
2745,-1.255,0.00521655
2746,-1.254,0.00521655
2747,-1.253,0.00521655
2748,-1.252,0.00521655
2749,-1.251,0.00521655
2750,-1.25,0.00521655
2751,-1.249,0.00521655
2752,-1.248,0.00521655
2753,-1.247,0.00521655
2754,-1.246,0.00521655
2755,-1.245,0.00521655
2756,-1.244,0.00521655
2757,-1.243,0.00521655
2758,-1.242,0.00521655
2759,-1.241,0.00521655
2760,-1.24,0.00521655
2761,-1.239,0.00521655
2762,-1.238,0.00521655
2763,-1.237,0.00521655
2764,-1.236,0.00521655
2765,-1.235,0.00521655
2766,-1.234,0.00521655
2767,-1.233,0.00521655
2768,-1.232,0.00521655
2769,-1.231,0.00521655
2770,-1.23,0.00521655
2771,-1.229,0.00521655
2772,-1.228,0.00173885
2773,-1.227,0.0556432
2774,-1.226,0.163452
2775,-1.225,0.175624
2776,-1.224,0.179102
2777,-1.223,0.179102
2778,-1.222,0.179102
2779,-1.221,0.179102
2780,-1.22,0.179102
2781,-1.219,0.179102
2782,-1.218,0.179102
2783,-1.217,0.179102
2784,-1.216,0.179102
2785,-1.215,0.179102
2786,-1.214,0.179102
2787,-1.213,0.179102
2788,-1.212,0.179102
2789,-1.211,0.179102
2790,-1.21,0.179102
2791,-1.209,0.179102
2792,-1.208,0.179102
2793,-1.207,0.179102
2794,-1.206,0.179102
2795,-1.205,0.179102
2796,-1.204,0.179102
2797,-1.203,0.179102
2798,-1.202,0.179102
2799,-1.201,0.179102
2800,-1.2,0.179102
2801,-1.199,0.179102
2802,-1.198,0.179102
2803,-1.197,0.179102
2804,-1.196,0.179102
2805,-1.195,0.179102
2806,-1.194,0.179102
2807,-1.193,0.179102
2808,-1.192,0.179102
2809,-1.191,0.179102
2810,-1.19,0.179102
2811,-1.189,0.179102
2812,-1.188,0.179102
2813,-1.187,0.179102
2814,-1.186,0.179102
2815,-1.185,0.179102
2816,-1.184,0.179102
2817,-1.183,0.179102
2818,-1.182,0.179102
2819,-1.181,0.179102
2820,-1.18,0.179102
2821,-1.179,0.179102
2822,-1.178,0.179102
2823,-1.177,0.179102
2824,-1.176,0.179102
2825,-1.175,0.179102
2826,-1.174,0.179102
2827,-1.173,0.179102
2828,-1.172,0.179102
2829,-1.171,0.179102
2830,-1.17,0.179102
2831,-1.169,0.179102
2832,-1.168,0.179102
2833,-1.167,0.179102
2834,-1.166,0.179102
2835,-1.165,0.179102
2836,-1.164,0.179102
2837,-1.163,0.179102
2838,-1.162,0.179102
2839,-1.161,0.179102
2840,-1.16,0.179102
2841,-1.159,0.179102
2842,-1.158,0.179102
2843,-1.157,0.179102
2844,-1.156,0.179102
2845,-1.155,0.179102
2846,-1.154,0.179102
2847,-1.153,0.179102
2848,-1.152,0.179102
2849,-1.151,0.179102
2850,-1.15,0.179102
2851,-1.149,0.179102
2852,-1.148,0.179102
2853,-1.147,0.179102
2854,-1.146,0.179102
2855,-1.145,0.179102
2856,-1.144,0.179102
2857,-1.143,0.179102
2858,-1.142,0.179102
2859,-1.141,0.179102
2860,-1.14,0.179102
2861,-1.139,0.179102
2862,-1.138,0.179102
2863,-1.137,0.179102
2864,-1.136,0.179102
2865,-1.135,0.179102
2866,-1.134,0.179102
2867,-1.133,0.179102
2868,-1.132,0.179102
2869,-1.131,0.179102
2870,-1.13,0.179102
2871,-1.129,0.179102
2872,-1.128,0.179102
2873,-1.127,0.179102
2874,-1.126,0.179102
2875,-1.125,0.179102
2876,-1.124,0.179102
2877,-1.123,0.179102
2878,-1.122,0.179102
2879,-1.121,0.179102
2880,-1.12,0.179102
2881,-1.119,0.179102
2882,-1.118,0.179102
2883,-1.117,0.179102
2884,-1.116,0.179102
2885,-1.115,0.179102
2886,-1.114,0.179102
2887,-1.113,0.179102
2888,-1.112,0.179102
2889,-1.111,0.179102
2890,-1.11,0.179102
2891,-1.109,0.179102
2892,-1.108,0.179102
2893,-1.107,0.179102
2894,-1.106,0.179102
2895,-1.105,0.179102
2896,-1.104,0.179102
2897,-1.103,0.179102
2898,-1.102,0.179102
2899,-1.101,0.179102
2900,-1.1,0.179102
2901,-1.099,0.179102
2902,-1.098,0.179102
2903,-1.097,0.179102
2904,-1.096,0.179102
2905,-1.095,0.179102
2906,-1.094,0.182579
2907,-1.093,0.0991145
2908,-1.092,0
2909,-1.091,0.00521655
2910,-1.09,0.00521655
2911,-1.089,0.00521655
2912,-1.088,0.00521655
2913,-1.087,0.00521655
2914,-1.086,0.00521655
2915,-1.085,0.00521655
2916,-1.084,0.00521655
2917,-1.083,0.00521655
2918,-1.082,0.00521655
2919,-1.081,0.00521655
2920,-1.08,0.00521655
2921,-1.079,0.00521655
2922,-1.078,0.00521655
2923,-1.077,0.00521655
2924,-1.076,0.00521655
2925,-1.075,0.00521655
2926,-1.074,0.00521655
2927,-1.073,0.00521655
2928,-1.072,0.00521655
2929,-1.071,0.00521655
2930,-1.07,0.00521655
2931,-1.069,0.00521655
2932,-1.068,0.00521655
2933,-1.067,0.00521655
2934,-1.066,0.00521655
2935,-1.065,0.00521655
2936,-1.064,0.00521655
2937,-1.063,0.00521655
2938,-1.062,0.00521655
2939,-1.061,0.00521655
2940,-1.06,0.00521655
2941,-1.059,0.00521655
2942,-1.058,0.00521655
2943,-1.057,0.00521655
2944,-1.056,0.00521655
2945,-1.055,0.00521655
2946,-1.054,0.00521655
2947,-1.053,0.00521655
2948,-1.052,0.00521655
2949,-1.051,0.00521655
2950,-1.05,0.00521655
2951,-1.049,0.00521655
2952,-1.048,0.00521655
2953,-1.047,0.00521655
2954,-1.046,0.00521655
2955,-1.045,0.00521655
2956,-1.044,0.00521655
2957,-1.043,0.00521655
2958,-1.042,0.00521655
2959,-1.041,0.00521655
2960,-1.04,0.00521655
2961,-1.039,0.00521655
2962,-1.038,0.00521655
2963,-1.037,0.00521655
2964,-1.036,0.00521655
2965,-1.035,0.00521655
2966,-1.034,0.00521655
2967,-1.033,0.00521655
2968,-1.032,0.00521655
2969,-1.031,0.00521655
2970,-1.03,0.00521655
2971,-1.029,0.00521655
2972,-1.028,0.00521655
2973,-1.027,0.00521655
2974,-1.026,0.00521655
2975,-1.025,0.00521655
2976,-1.024,0.00521655
2977,-1.023,0.00521655
2978,-1.022,0.00521655
2979,-1.021,0.00521655
2980,-1.02,0.00521655
2981,-1.019,0.00521655
2982,-1.018,0.00521655
2983,-1.017,0.00521655
2984,-1.016,0.00521655
2985,-1.015,0.00521655
2986,-1.014,0.00521655
2987,-1.013,0.00521655
2988,-1.012,0.00521655
2989,-1.011,0.00521655
2990,-1.01,0.00521655
2991,-1.009,0.00521655
2992,-1.008,0.00521655
2993,-1.007,0.00521655
2994,-1.006,0.00521655
2995,-1.005,0.00521655
2996,-1.004,0.00521655
2997,-1.003,0.00521655
2998,-1.002,0.00521655
2999,-1.001,0.00521655
3000,-1,0.00521655
3001,-0.999,0.00521655
3002,-0.998,0.00521655
3003,-0.997,0.00521655
3004,-0.996,0.00521655
3005,-0.995,0.00521655
3006,-0.994,0.00521655
3007,-0.993,0.00521655
3008,-0.992,0.00521655
3009,-0.991,0.00521655
3010,-0.99,0.00521655
3011,-0.989,0.00521655
3012,-0.988,0.00521655
3013,-0.987,0.00521655
3014,-0.986,0.00521655
3015,-0.985,0.00521655
3016,-0.984,0.00521655
3017,-0.983,0.00521655
3018,-0.982,0.00521655
3019,-0.981,0.00521655
3020,-0.98,0.00521655
3021,-0.979,0.00521655
3022,-0.978,0.00521655
3023,-0.977,0.00521655
3024,-0.976,0.00521655
3025,-0.975,0.00521655
3026,-0.974,0.00521655
3027,-0.973,0.00521655
3028,-0.972,0.00521655
3029,-0.971,0.00521655
3030,-0.97,0.00521655
3031,-0.969,0.00521655
3032,-0.968,0.00521655
3033,-0.967,0.00521655
3034,-0.966,0.00521655
3035,-0.965,0.00521655
3036,-0.964,0.00521655
3037,-0.963,0.00521655
3038,-0.962,0.00521655
3039,-0.961,0.00521655
3040,-0.96,0.00521655
3041,-0.959,0.00521655
3042,-0.958,0.00521655
3043,-0.957,0.00521655
3044,-0.956,0.00521655
3045,-0.955,0.00521655
3046,-0.954,0.00521655
3047,-0.953,0.00521655
3048,-0.952,0.00521655
3049,-0.951,0.00521655
3050,-0.95,0.00521655
3051,-0.949,0.00521655
3052,-0.948,0.00521655
3053,-0.947,0.00521655
3054,-0.946,0.00521655
3055,-0.945,0.00521655
3056,-0.944,0.00521655
3057,-0.943,0.00521655
3058,-0.942,0.00521655
3059,-0.941,0.00521655
3060,-0.94,0.00521655
3061,-0.939,0.00521655
3062,-0.938,0.00521655
3063,-0.937,0.00521655
3064,-0.936,0.00521655
3065,-0.935,0.00521655
3066,-0.934,0.00521655
3067,-0.933,0.00521655
3068,-0.932,0.00521655
3069,-0.931,0.00521655
3070,-0.93,0.00521655
3071,-0.929,0.00521655
3072,-0.928,0.00521655
3073,-0.927,0.00521655
3074,-0.926,0.00521655
3075,-0.925,0.00521655
3076,-0.924,0.00521655
3077,-0.923,0.00521655
3078,-0.922,0.00521655
3079,-0.921,0.00521655
3080,-0.92,0.00521655
3081,-0.919,0.00521655
3082,-0.918,0.00521655
3083,-0.917,0.00521655
3084,-0.916,0.00521655
3085,-0.915,0.00521655
3086,-0.914,0.00521655
3087,-0.913,0.00521655
3088,-0.912,0.00521655
3089,-0.911,0.00521655
3090,-0.91,0.00521655
3091,-0.909,0.00521655
3092,-0.908,0.00521655
3093,-0.907,0.00521655
3094,-0.906,0.00521655
3095,-0.905,0.00521655
3096,-0.904,0.00521655
3097,-0.903,0.00521655
3098,-0.902,0.00521655
3099,-0.901,0.00521655
3100,-0.9,0.00521655
3101,-0.899,0.00521655
3102,-0.898,0.00521655
3103,-0.897,0.00521655
3104,-0.896,0.00521655
3105,-0.895,0.00521655
3106,-0.894,0.00521655
3107,-0.893,0.00521655
3108,-0.892,0.00521655
3109,-0.891,0.00521655
3110,-0.89,0.00521655
3111,-0.889,0.00521655
3112,-0.888,0.00521655
3113,-0.887,0.00521655
3114,-0.886,0.00521655
3115,-0.885,0.00521655
3116,-0.884,0.00521655
3117,-0.883,0.00521655
3118,-0.882,0.00521655
3119,-0.881,0.00521655
3120,-0.88,0.00521655
3121,-0.879,0.00521655
3122,-0.878,0.00521655
3123,-0.877,0.00521655
3124,-0.876,0.00521655
3125,-0.875,0.00521655
3126,-0.874,0.00521655
3127,-0.873,0.00521655
3128,-0.872,0.00521655
3129,-0.871,0.00521655
3130,-0.87,0.00521655
3131,-0.869,0.00521655
3132,-0.868,0.00521655
3133,-0.867,0.00521655
3134,-0.866,0.00521655
3135,-0.865,0.00521655
3136,-0.864,0.00521655
3137,-0.863,0.00521655
3138,-0.862,0.00521655
3139,-0.861,0.00521655
3140,-0.86,0.00521655
3141,-0.859,0.00521655
3142,-0.858,0.00521655
3143,-0.857,0.00521655
3144,-0.856,0.00521655
3145,-0.855,0.00521655
3146,-0.854,0.00521655
3147,-0.853,0.00521655
3148,-0.852,0.00521655
3149,-0.851,0.00521655
3150,-0.85,0.00521655
3151,-0.849,0.00521655
3152,-0.848,0.00521655
3153,-0.847,0.00521655
3154,-0.846,0.00521655
3155,-0.845,0.00521655
3156,-0.844,0.00521655
3157,-0.843,0.00521655
3158,-0.842,0.00521655
3159,-0.841,0.00521655
3160,-0.84,0.00521655
3161,-0.839,0.00521655
3162,-0.838,0.00521655
3163,-0.837,0.00521655
3164,-0.836,0.00521655
3165,-0.835,0.00521655
3166,-0.834,0.00521655
3167,-0.833,0.00521655
3168,-0.832,0.00521655
3169,-0.831,0.00521655
3170,-0.83,0.00521655
3171,-0.829,0.00521655
3172,-0.828,0.00521655
3173,-0.827,0.00521655
3174,-0.826,0.00521655
3175,-0.825,0.00521655
3176,-0.824,0.00521655
3177,-0.823,0.00521655
3178,-0.822,0.00521655
3179,-0.821,0.00521655
3180,-0.82,0.00521655
3181,-0.819,0.00521655
3182,-0.818,0.00521655
3183,-0.817,0.00521655
3184,-0.816,0.00521655
3185,-0.815,0.00521655
3186,-0.814,0.00521655
3187,-0.813,0.00521655
3188,-0.812,0.00521655
3189,-0.811,0.00521655
3190,-0.81,0.00521655
3191,-0.809,0.00521655
3192,-0.808,0.00521655
3193,-0.807,0.00521655
3194,-0.806,0.00521655
3195,-0.805,0.00521655
3196,-0.804,0.00521655
3197,-0.803,0.00521655
3198,-0.802,0.00521655
3199,-0.801,0.00521655
3200,-0.8,0.00521655
3201,-0.799,0.00521655
3202,-0.798,0.00521655
3203,-0.797,0.00521655
3204,-0.796,0.00521655
3205,-0.795,0.00521655
3206,-0.794,0.00521655
3207,-0.793,0.00521655
3208,-0.792,0.00521655
3209,-0.791,0.00521655
3210,-0.79,0.00521655
3211,-0.789,0.00521655
3212,-0.788,0.00521655
3213,-0.787,0.00521655
3214,-0.786,0.00521655
3215,-0.785,0.00521655
3216,-0.784,0.00521655
3217,-0.783,0.00521655
3218,-0.782,0.00521655
3219,-0.781,0.00521655
3220,-0.78,0.00521655
3221,-0.779,0.00521655
3222,-0.778,0.00521655
3223,-0.777,0.00521655
3224,-0.776,0.00521655
3225,-0.775,0.00521655
3226,-0.774,0.00521655
3227,-0.773,0.00521655
3228,-0.772,0.00521655
3229,-0.771,0.00521655
3230,-0.77,0.00521655
3231,-0.769,0.00521655
3232,-0.768,0.00521655
3233,-0.767,0.00521655
3234,-0.766,0.00521655
3235,-0.765,0.00521655
3236,-0.764,0.00521655
3237,-0.763,0.00521655
3238,-0.762,0.00521655
3239,-0.761,0.00521655
3240,-0.76,0.00521655
3241,-0.759,0.00521655
3242,-0.758,0.00521655
3243,-0.757,0.00521655
3244,-0.756,0.00521655
3245,-0.755,0.00521655
3246,-0.754,0.00521655
3247,-0.753,0.00521655
3248,-0.752,0.00521655
3249,-0.751,0.00521655
3250,-0.75,0.00521655
3251,-0.749,0.00521655
3252,-0.748,0.00521655
3253,-0.747,0.00521655
3254,-0.746,0.00521655
3255,-0.745,0.00521655
3256,-0.744,0.00521655
3257,-0.743,0.00521655
3258,-0.742,0.00521655
3259,-0.741,0.00521655
3260,-0.74,0.00521655
3261,-0.739,0.00521655
3262,-0.738,0.00521655
3263,-0.737,0.00521655
3264,-0.736,0.00521655
3265,-0.735,0.00521655
3266,-0.734,0.00521655
3267,-0.733,0.00521655
3268,-0.732,0.00521655
3269,-0.731,0.00521655
3270,-0.73,0.00521655
3271,-0.729,0.00521655
3272,-0.728,0.00521655
3273,-0.727,0.00521655
3274,-0.726,0.00521655
3275,-0.725,0.00521655
3276,-0.724,0.00521655
3277,-0.723,0.00521655
3278,-0.722,0.00521655
3279,-0.721,0.00521655
3280,-0.72,0.00521655
3281,-0.719,0.00521655
3282,-0.718,0.00521655
3283,-0.717,0.00521655
3284,-0.716,0.00521655
3285,-0.715,0.00521655
3286,-0.714,0.00521655
3287,-0.713,0.00521655
3288,-0.712,0.00521655
3289,-0.711,0.00521655
3290,-0.71,0.00521655
3291,-0.709,0.00521655
3292,-0.708,0.00521655
3293,-0.707,0.00521655
3294,-0.706,0.00521655
3295,-0.705,0.00521655
3296,-0.704,0.00521655
3297,-0.703,0.00521655
3298,-0.702,0.00521655
3299,-0.701,0.00521655
3300,-0.7,0.00521655
3301,-0.699,0.00521655
3302,-0.698,0.00521655
3303,-0.697,0.00521655
3304,-0.696,0.00521655
3305,-0.695,0.00521655
3306,-0.694,0.00521655
3307,-0.693,0.00521655
3308,-0.692,0.00521655
3309,-0.691,0.00521655
3310,-0.69,0.00521655
3311,-0.689,0.00521655
3312,-0.688,0.00521655
3313,-0.687,0.00521655
3314,-0.686,0.00521655
3315,-0.685,0.00521655
3316,-0.684,0.00521655
3317,-0.683,0.00521655
3318,-0.682,0.00521655
3319,-0.681,0.00521655
3320,-0.68,0.00521655
3321,-0.679,0.00521655
3322,-0.678,0.00521655
3323,-0.677,0.00521655
3324,-0.676,0.00521655
3325,-0.675,0.00521655
3326,-0.674,0.00521655
3327,-0.673,0.00521655
3328,-0.672,0.00521655
3329,-0.671,0.00521655
3330,-0.67,0.00521655
3331,-0.669,0.00521655
3332,-0.668,0.00521655
3333,-0.667,0.00521655
3334,-0.666,0.00521655
3335,-0.665,0.00521655
3336,-0.664,0.00521655
3337,-0.663,0.00521655
3338,-0.662,0.00521655
3339,-0.661,0.00521655
3340,-0.66,0.00521655
3341,-0.659,0.00521655
3342,-0.658,0.00521655
3343,-0.657,0.00521655
3344,-0.656,0.00521655
3345,-0.655,0.00521655
3346,-0.654,0.00521655
3347,-0.653,0.00521655
3348,-0.652,0.00521655
3349,-0.651,0.00521655
3350,-0.65,0.00521655
3351,-0.649,0.00521655
3352,-0.648,0.00521655
3353,-0.647,0.00521655
3354,-0.646,0.00521655
3355,-0.645,0.00521655
3356,-0.644,0.00521655
3357,-0.643,0.00521655
3358,-0.642,0.00521655
3359,-0.641,0.00521655
3360,-0.64,0.00521655
3361,-0.639,0.00521655
3362,-0.638,0.00521655
3363,-0.637,0.00521655
3364,-0.636,0.00521655
3365,-0.635,0.00521655
3366,-0.634,0.00521655
3367,-0.633,0.00521655
3368,-0.632,0.00521655
3369,-0.631,0.00521655
3370,-0.63,0.00521655
3371,-0.629,0.00521655
3372,-0.628,0.00521655
3373,-0.627,0.00521655
3374,-0.626,0.00521655
3375,-0.625,0.00521655
3376,-0.624,0.00521655
3377,-0.623,0.00521655
3378,-0.622,0.00521655
3379,-0.621,0.00521655
3380,-0.62,0.00521655
3381,-0.619,0.00521655
3382,-0.618,0.00521655
3383,-0.617,0.00521655
3384,-0.616,0.00521655
3385,-0.615,0.00521655
3386,-0.614,0.00521655
3387,-0.613,0.00521655
3388,-0.612,0.00521655
3389,-0.611,0.00521655
3390,-0.61,0.00521655
3391,-0.609,0.00521655
3392,-0.608,0.00521655
3393,-0.607,0.00521655
3394,-0.606,0.00521655
3395,-0.605,0.00521655
3396,-0.604,0.00521655
3397,-0.603,0.00521655
3398,-0.602,0.00521655
3399,-0.601,0.00521655
3400,-0.6,0.00521655
3401,-0.599,0.00521655
3402,-0.598,0.00521655
3403,-0.597,0.00521655
3404,-0.596,0.00521655
3405,-0.595,0.00521655
3406,-0.594,0.00521655
3407,-0.593,0.00521655
3408,-0.592,0.00521655
3409,-0.591,0.00521655
3410,-0.59,0.00521655
3411,-0.589,0.00521655
3412,-0.588,0.00521655
3413,-0.587,0.00521655
3414,-0.586,0.00521655
3415,-0.585,0.00521655
3416,-0.584,0.00521655
3417,-0.583,0.00521655
3418,-0.582,0.00521655
3419,-0.581,0.00521655
3420,-0.58,0.00521655
3421,-0.579,0.00521655
3422,-0.578,0.00521655
3423,-0.577,0.00521655
3424,-0.576,0.00521655
3425,-0.575,0.00521655
3426,-0.574,0.00521655
3427,-0.573,0.00521655
3428,-0.572,0.00521655
3429,-0.571,0.00521655
3430,-0.57,0.00521655
3431,-0.569,0.00521655
3432,-0.568,0.00521655
3433,-0.567,0.00521655
3434,-0.566,0.00521655
3435,-0.565,0.00521655
3436,-0.564,0.00521655
3437,-0.563,0.00521655
3438,-0.562,0.00521655
3439,-0.561,0.00521655
3440,-0.56,0.00521655
3441,-0.559,0.00521655
3442,-0.558,0.00521655
3443,-0.557,0.00521655
3444,-0.556,0.00521655
3445,-0.555,0.00521655
3446,-0.554,0.00521655
3447,-0.553,0.00521655
3448,-0.552,0.00521655
3449,-0.551,0.00521655
3450,-0.55,0.00521655
3451,-0.549,0.00521655
3452,-0.548,0.00521655
3453,-0.547,0.00521655
3454,-0.546,0.00521655
3455,-0.545,0.00521655
3456,-0.544,0.00521655
3457,-0.543,0.00521655
3458,-0.542,0.00521655
3459,-0.541,0.00521655
3460,-0.54,0.00521655
3461,-0.539,0.00521655
3462,-0.538,0.00521655
3463,-0.537,0.00521655
3464,-0.536,0.00521655
3465,-0.535,0.00521655
3466,-0.534,0.00521655
3467,-0.533,0.00521655
3468,-0.532,0.00521655
3469,-0.531,0.00521655
3470,-0.53,0.00521655
3471,-0.529,0.00521655
3472,-0.528,0.00521655
3473,-0.527,0.00521655
3474,-0.526,0.00521655
3475,-0.525,0.00521655
3476,-0.524,0.00521655
3477,-0.523,0.00521655
3478,-0.522,0.00521655
3479,-0.521,0.00521655
3480,-0.52,0.00521655
3481,-0.519,0.00521655
3482,-0.518,0.00521655
3483,-0.517,0.00521655
3484,-0.516,0.00521655
3485,-0.515,0.00521655
3486,-0.514,0.00521655
3487,-0.513,0.00521655
3488,-0.512,0.00521655
3489,-0.511,0.00521655
3490,-0.51,0.00521655
3491,-0.509,0.00521655
3492,-0.508,0.00521655
3493,-0.507,0.00521655
3494,-0.506,0.00521655
3495,-0.505,0.00521655
3496,-0.504,0.00521655
3497,-0.503,0.00521655
3498,-0.502,0.00521655
3499,-0.501,0.00521655
3500,-0.5,0.00521655
3501,-0.499,0.00521655
3502,-0.498,0.00521655
3503,-0.497,0.00521655
3504,-0.496,0.00521655
3505,-0.495,0.00521655
3506,-0.494,0.00521655
3507,-0.493,0.00521655
3508,-0.492,0.00521655
3509,-0.491,0.00521655
3510,-0.49,0.00521655
3511,-0.489,0.00521655
3512,-0.488,0.00521655
3513,-0.487,0.00521655
3514,-0.486,0.00521655
3515,-0.485,0.00521655
3516,-0.484,0.00521655
3517,-0.483,0.00521655
3518,-0.482,0.00521655
3519,-0.481,0.00521655
3520,-0.48,0.00521655
3521,-0.479,0.00521655
3522,-0.478,0.00521655
3523,-0.477,0.00521655
3524,-0.476,0.00521655
3525,-0.475,0.00521655
3526,-0.474,0.00521655
3527,-0.473,0.00521655
3528,-0.472,0.00521655
3529,-0.471,0.00521655
3530,-0.47,0.00521655
3531,-0.469,0.00521655
3532,-0.468,0.00521655
3533,-0.467,0.00521655
3534,-0.466,0.00521655
3535,-0.465,0.00521655
3536,-0.464,0.00521655
3537,-0.463,0.00521655
3538,-0.462,0.00521655
3539,-0.461,0.00521655
3540,-0.46,0.00521655
3541,-0.459,0.00521655
3542,-0.458,0.00521655
3543,-0.457,0.00521655
3544,-0.456,0.00521655
3545,-0.455,0.00521655
3546,-0.454,0.00521655
3547,-0.453,0.00521655
3548,-0.452,0.00521655
3549,-0.451,0.00521655
3550,-0.45,0.00521655
3551,-0.449,0.00521655
3552,-0.448,0.00521655
3553,-0.447,0.00521655
3554,-0.446,0.00521655
3555,-0.445,0.00521655
3556,-0.444,0.00521655
3557,-0.443,0.00521655
3558,-0.442,0.00521655
3559,-0.441,0.00521655
3560,-0.44,0.00521655
3561,-0.439,0.00521655
3562,-0.438,0.00521655
3563,-0.437,0.00521655
3564,-0.436,0.00521655
3565,-0.435,0.00521655
3566,-0.434,0.00521655
3567,-0.433,0.00521655
3568,-0.432,0.00521655
3569,-0.431,0.00521655
3570,-0.43,0.00521655
3571,-0.429,0.00521655
3572,-0.428,0.00521655
3573,-0.427,0.00521655
3574,-0.426,0.00521655
3575,-0.425,0.00521655
3576,-0.424,0.00521655
3577,-0.423,0.00521655
3578,-0.422,0.00521655
3579,-0.421,0.00521655
3580,-0.42,0.00521655
3581,-0.419,0.00521655
3582,-0.418,0.00521655
3583,-0.417,0.00521655
3584,-0.416,0.00521655
3585,-0.415,0.00521655
3586,-0.414,0.00521655
3587,-0.413,0.00521655
3588,-0.412,0.00521655
3589,-0.411,0.00521655
3590,-0.41,0.00521655
3591,-0.409,0.00521655
3592,-0.408,0.00521655
3593,-0.407,0.00521655
3594,-0.406,0.00521655
3595,-0.405,0.00521655
3596,-0.404,0.00521655
3597,-0.403,0.00521655
3598,-0.402,0.00521655
3599,-0.401,0.00521655
3600,-0.4,0.00521655
3601,-0.399,0.00521655
3602,-0.398,0.00521655
3603,-0.397,0.00521655
3604,-0.396,0.00521655
3605,-0.395,0.00521655
3606,-0.394,0.00521655
3607,-0.393,0.00521655
3608,-0.392,0.00521655
3609,-0.391,0.00521655
3610,-0.39,0.00521655
3611,-0.389,0.00521655
3612,-0.388,0.00521655
3613,-0.387,0.00521655
3614,-0.386,0.00521655
3615,-0.385,0.00521655
3616,-0.384,0.00521655
3617,-0.383,0.00521655
3618,-0.382,0.00521655
3619,-0.381,0.00521655
3620,-0.38,0.00521655
3621,-0.379,0.00521655
3622,-0.378,0.00521655
3623,-0.377,0.00521655
3624,-0.376,0.00521655
3625,-0.375,0.00521655
3626,-0.374,0.00521655
3627,-0.373,0.00521655
3628,-0.372,0.00521655
3629,-0.371,0.00521655
3630,-0.37,0.00521655
3631,-0.369,0.00521655
3632,-0.368,0.00521655
3633,-0.367,0.00521655
3634,-0.366,0.00521655
3635,-0.365,0.00521655
3636,-0.364,0.00521655
3637,-0.363,0.00521655
3638,-0.362,0.00521655
3639,-0.361,0.00521655
3640,-0.36,0.00521655
3641,-0.359,0.00521655
3642,-0.358,0.00521655
3643,-0.357,0.00521655
3644,-0.356,0.00521655
3645,-0.355,0.00521655
3646,-0.354,0.00521655
3647,-0.353,0.00521655
3648,-0.352,0.00521655
3649,-0.351,0.00521655
3650,-0.35,0.00521655
3651,-0.349,0.00521655
3652,-0.348,0.00521655
3653,-0.347,0.00521655
3654,-0.346,0.00521655
3655,-0.345,0.00521655
3656,-0.344,0.00521655
3657,-0.343,0.00521655
3658,-0.342,0.00521655
3659,-0.341,0.0034777
3660,-0.34,0.00521655
3661,-0.339,0.00521655
3662,-0.338,0.00521655
3663,-0.337,0.00521655
3664,-0.336,0.00521655
3665,-0.335,0.00521655
3666,-0.334,0.00521655
3667,-0.333,0.00521655
3668,-0.332,0.00521655
3669,-0.331,0.00521655
3670,-0.33,0.00521655
3671,-0.329,0.00521655
3672,-0.328,0.00521655
3673,-0.327,0.00521655
3674,-0.326,0.00521655
3675,-0.325,0.00521655
3676,-0.324,0.00521655
3677,-0.323,0.00521655
3678,-0.322,0.00521655
3679,-0.321,0.00521655
3680,-0.32,0.00521655
3681,-0.319,0.00521655
3682,-0.318,0.00521655
3683,-0.317,0.00521655
3684,-0.316,0.00521655
3685,-0.315,0.00521655
3686,-0.314,0.00521655
3687,-0.313,0.00521655
3688,-0.312,0.00521655
3689,-0.311,0.00521655
3690,-0.31,0.00521655
3691,-0.309,0.00521655
3692,-0.308,0.00521655
3693,-0.307,0.00521655
3694,-0.306,0.00521655
3695,-0.305,0.00521655
3696,-0.304,0.00521655
3697,-0.303,0.00521655
3698,-0.302,0.00521655
3699,-0.301,0.00521655
3700,-0.3,0.00521655
3701,-0.299,0.00521655
3702,-0.298,0.00521655
3703,-0.297,0.00521655
3704,-0.296,0.00521655
3705,-0.295,0.00521655
3706,-0.294,0.00521655
3707,-0.293,0.00521655
3708,-0.292,0.00521655
3709,-0.291,0.00521655
3710,-0.29,0.00521655
3711,-0.289,0.00521655
3712,-0.288,0.00521655
3713,-0.287,0.00521655
3714,-0.286,0.00521655
3715,-0.285,0.00521655
3716,-0.284,0.00521655
3717,-0.283,0.00521655
3718,-0.282,0.00521655
3719,-0.281,0.00521655
3720,-0.28,0.00521655
3721,-0.279,0.00521655
3722,-0.278,0.00521655
3723,-0.277,0.00521655
3724,-0.276,0.00521655
3725,-0.275,0.00521655
3726,-0.274,0.00521655
3727,-0.273,0.00521655
3728,-0.272,0.00521655
3729,-0.271,0.00521655
3730,-0.27,0.00521655
3731,-0.269,0.00521655
3732,-0.268,0.00521655
3733,-0.267,0.00521655
3734,-0.266,0.00521655
3735,-0.265,0.00521655
3736,-0.264,0.00521655
3737,-0.263,0.00521655
3738,-0.262,0.00521655
3739,-0.261,0.00521655
3740,-0.26,0.00521655
3741,-0.259,0.00521655
3742,-0.258,0.00521655
3743,-0.257,0.00521655
3744,-0.256,0.00521655
3745,-0.255,0.00521655
3746,-0.254,0.00521655
3747,-0.253,0.00521655
3748,-0.252,0.00521655
3749,-0.251,0.00521655
3750,-0.25,0.00521655
3751,-0.249,0.00521655
3752,-0.248,0.00521655
3753,-0.247,0.00521655
3754,-0.246,0.00521655
3755,-0.245,0.00521655
3756,-0.244,0.00521655
3757,-0.243,0.00521655
3758,-0.242,0.00521655
3759,-0.241,0.00521655
3760,-0.24,0.00521655
3761,-0.239,0.00521655
3762,-0.238,0.00521655
3763,-0.237,0.00521655
3764,-0.236,0.00521655
3765,-0.235,0.00521655
3766,-0.234,0.00521655
3767,-0.233,0.00521655
3768,-0.232,0.00521655
3769,-0.231,0.00521655
3770,-0.23,0.00521655
3771,-0.229,0.00521655
3772,-0.228,0.00521655
3773,-0.227,0.00521655
3774,-0.226,0.00521655
3775,-0.225,0.00521655
3776,-0.224,0.00521655
3777,-0.223,0.00521655
3778,-0.222,0.00521655
3779,-0.221,0.00521655
3780,-0.22,0.00521655
3781,-0.219,0.00521655
3782,-0.218,0.00521655
3783,-0.217,0.00521655
3784,-0.216,0.00521655
3785,-0.215,0.00521655
3786,-0.214,0.00521655
3787,-0.213,0.00521655
3788,-0.212,0.00521655
3789,-0.211,0.00521655
3790,-0.21,0.00521655
3791,-0.209,0.00521655
3792,-0.208,0.00521655
3793,-0.207,0.00521655
3794,-0.206,0.00521655
3795,-0.205,0.00521655
3796,-0.204,0.00521655
3797,-0.203,0.00521655
3798,-0.202,0.00521655
3799,-0.201,0.00521655
3800,-0.2,0.00521655
3801,-0.199,0.00521655
3802,-0.198,0.00521655
3803,-0.197,0.00521655
3804,-0.196,0.00521655
3805,-0.195,0.00521655
3806,-0.194,0.00521655
3807,-0.193,0.00521655
3808,-0.192,0.00521655
3809,-0.191,0.0034777
3810,-0.19,0.00521655
3811,-0.189,0.00521655
3812,-0.188,0.00521655
3813,-0.187,0.00521655
3814,-0.186,0.00521655
3815,-0.185,0.00521655
3816,-0.184,0.00521655
3817,-0.183,0.00521655
3818,-0.182,0.00521655
3819,-0.181,0.00521655
3820,-0.18,0.00521655
3821,-0.179,0.00521655
3822,-0.178,0.00521655
3823,-0.177,0.00521655
3824,-0.176,0.00521655
3825,-0.175,0.00521655
3826,-0.174,0.00521655
3827,-0.173,0.00521655
3828,-0.172,0.00521655
3829,-0.171,0.00521655
3830,-0.17,0.00521655
3831,-0.169,0.00521655
3832,-0.168,0.00521655
3833,-0.167,0.00521655
3834,-0.166,0.00521655
3835,-0.165,0.00521655
3836,-0.164,0.00521655
3837,-0.163,0.00521655
3838,-0.162,0.00521655
3839,-0.161,0.00521655
3840,-0.16,0.00521655
3841,-0.159,0.00521655
3842,-0.158,0.00521655
3843,-0.157,0.00521655
3844,-0.156,0.00521655
3845,-0.155,0.00521655
3846,-0.154,0.00521655
3847,-0.153,0.00521655
3848,-0.152,0.00521655
3849,-0.151,0.00521655
3850,-0.15,0.00521655
3851,-0.149,0.00521655
3852,-0.148,0.00521655
3853,-0.147,0.00521655
3854,-0.146,0.00521655
3855,-0.145,0.00521655
3856,-0.144,0.00521655
3857,-0.143,0.00521655
3858,-0.142,0.00521655
3859,-0.141,0.00521655
3860,-0.14,0.00521655
3861,-0.139,0.00521655
3862,-0.138,0.00521655
3863,-0.137,0.00521655
3864,-0.136,0.00521655
3865,-0.135,0.00521655
3866,-0.134,0.00521655
3867,-0.133,0.00521655
3868,-0.132,0.00521655
3869,-0.131,0.00521655
3870,-0.13,0.00521655
3871,-0.129,0.00521655
3872,-0.128,0.00521655
3873,-0.127,0.00521655
3874,-0.126,0.00521655
3875,-0.125,0.00521655
3876,-0.124,0.00521655
3877,-0.123,0.00521655
3878,-0.122,0.00521655
3879,-0.121,0.00521655
3880,-0.12,0.00521655
3881,-0.119,0.00521655
3882,-0.118,0.00521655
3883,-0.117,0.00521655
3884,-0.116,0.00521655
3885,-0.115,0.00521655
3886,-0.114,0.00521655
3887,-0.113,0.00521655
3888,-0.112,0.00521655
3889,-0.111,0.00521655
3890,-0.11,0.00521655
3891,-0.109,0.00521655
3892,-0.108,0.00521655
3893,-0.107,0.00521655
3894,-0.106,0.00521655
3895,-0.105,0.00521655
3896,-0.104,0.00521655
3897,-0.103,0.00521655
3898,-0.102,0.00521655
3899,-0.101,0.00521655
3900,-0.1,0.00521655
3901,-0.099,0.00521655
3902,-0.098,0.00521655
3903,-0.097,0.00521655
3904,-0.096,0.00521655
3905,-0.095,0.00521655
3906,-0.094,0.00521655
3907,-0.093,0.00521655
3908,-0.092,0.00521655
3909,-0.091,0.00521655
3910,-0.09,0.00521655
3911,-0.089,0.00521655
3912,-0.088,0.00521655
3913,-0.087,0.00521655
3914,-0.086,0.00521655
3915,-0.085,0.00521655
3916,-0.084,0.00521655
3917,-0.083,0.00521655
3918,-0.082,0.00521655
3919,-0.081,0.00521655
3920,-0.08,0.00521655
3921,-0.079,0.00521655
3922,-0.078,0.00521655
3923,-0.077,0.00521655
3924,-0.076,0.00521655
3925,-0.075,0.00521655
3926,-0.074,0.00521655
3927,-0.073,0.00521655
3928,-0.072,0.00521655
3929,-0.071,0.00521655
3930,-0.07,0.00521655
3931,-0.069,0.00521655
3932,-0.068,0.00521655
3933,-0.067,0.00521655
3934,-0.066,0.00521655
3935,-0.065,0.00521655
3936,-0.064,0.00521655
3937,-0.063,0.00521655
3938,-0.062,0.00521655
3939,-0.061,0.00521655
3940,-0.06,0.00521655
3941,-0.059,0.00521655
3942,-0.058,0.00521655
3943,-0.057,0.00521655
3944,-0.056,0.00521655
3945,-0.055,0.00521655
3946,-0.054,0.00521655
3947,-0.053,0.00521655
3948,-0.052,0.00521655
3949,-0.051,0.00521655
3950,-0.05,0.00521655
3951,-0.049,0.00521655
3952,-0.048,0.00521655
3953,-0.047,0.00521655
3954,-0.046,0.00521655
3955,-0.045,0.00521655
3956,-0.044,0.00521655
3957,-0.043,0.00521655
3958,-0.042,0.00521655
3959,-0.041,0.00521655
3960,-0.04,0.00521655
3961,-0.039,0.00521655
3962,-0.038,0.00521655
3963,-0.037,0.00521655
3964,-0.036,0.00521655
3965,-0.035,0.00521655
3966,-0.034,0.00521655
3967,-0.033,0.00521655
3968,-0.032,0.00521655
3969,-0.031,0.00521655
3970,-0.03,0.00521655
3971,-0.029,0.00521655
3972,-0.028,0.00521655
3973,-0.027,0.00521655
3974,-0.026,0.00521655
3975,-0.025,0.00521655
3976,-0.024,0.00521655
3977,-0.023,0.00521655
3978,-0.022,0.00521655
3979,-0.021,0.00521655
3980,-0.02,0.00521655
3981,-0.019,0.00521655
3982,-0.018,0.00521655
3983,-0.017,0.00521655
3984,-0.016,0.00521655
3985,-0.015,0.00521655
3986,-0.014,0.00521655
3987,-0.013,0.00521655
3988,-0.012,0.00521655
3989,-0.011,0.00521655
3990,-0.01,0.00521655
3991,-0.009,0.00521655
3992,-0.008,0.00521655
3993,-0.007,0.00521655
3994,-0.006,0.00521655
3995,-0.005,0.00521655
3996,-0.004,0.00521655
3997,-0.003,0.00521655
3998,-0.002,0.00173885
3999,-0.001,0.0417324
4000,0,0.139108
4001,0.001,0.179102
4002,0.002,0.179102
4003,0.003,0.179102
4004,0.004,0.179102
4005,0.005,0.179102
4006,0.006,0.179102
4007,0.007,0.179102
4008,0.008,0.179102
4009,0.009,0.179102
4010,0.01,0.179102
4011,0.011,0.179102
4012,0.012,0.179102
4013,0.013,0.179102
4014,0.014,0.179102
4015,0.015,0.179102
4016,0.016,0.179102
4017,0.017,0.179102
4018,0.018,0.179102
4019,0.019,0.179102
4020,0.02,0.179102
4021,0.021,0.179102
4022,0.022,0.179102
4023,0.023,0.179102
4024,0.024,0.179102
4025,0.025,0.179102
4026,0.026,0.179102
4027,0.027,0.179102
4028,0.028,0.179102
4029,0.029,0.179102
4030,0.03,0.179102
4031,0.031,0.179102
4032,0.032,0.179102
4033,0.033,0.179102
4034,0.034,0.179102
4035,0.035,0.179102
4036,0.036,0.179102
4037,0.037,0.179102
4038,0.038,0.179102
4039,0.039,0.179102
4040,0.04,0.179102
4041,0.041,0.179102
4042,0.042,0.179102
4043,0.043,0.179102
4044,0.044,0.179102
4045,0.045,0.179102
4046,0.046,0.179102
4047,0.047,0.179102
4048,0.048,0.179102
4049,0.049,0.179102
4050,0.05,0.179102
4051,0.051,0.179102
4052,0.052,0.179102
4053,0.053,0.179102
4054,0.054,0.179102
4055,0.055,0.179102
4056,0.056,0.179102
4057,0.057,0.179102
4058,0.058,0.179102
4059,0.059,0.179102
4060,0.06,0.179102
4061,0.061,0.179102
4062,0.062,0.179102
4063,0.063,0.179102
4064,0.064,0.179102
4065,0.065,0.179102
4066,0.066,0.179102
4067,0.067,0.179102
4068,0.068,0.179102
4069,0.069,0.179102
4070,0.07,0.179102
4071,0.071,0.179102
4072,0.072,0.179102
4073,0.073,0.179102
4074,0.074,0.179102
4075,0.075,0.179102
4076,0.076,0.179102
4077,0.077,0.179102
4078,0.078,0.179102
4079,0.079,0.179102
4080,0.08,0.179102
4081,0.081,0.179102
4082,0.082,0.179102
4083,0.083,0.179102
4084,0.084,0.179102
4085,0.085,0.179102
4086,0.086,0.179102
4087,0.087,0.179102
4088,0.088,0.179102
4089,0.089,0.179102
4090,0.09,0.179102
4091,0.091,0.179102
4092,0.092,0.179102
4093,0.093,0.179102
4094,0.094,0.179102
4095,0.095,0.179102
4096,0.096,0.179102
4097,0.097,0.179102
4098,0.098,0.179102
4099,0.099,0.179102
4100,0.1,0.179102
4101,0.101,0.179102
4102,0.102,0.179102
4103,0.103,0.179102
4104,0.104,0.179102
4105,0.105,0.179102
4106,0.106,0.179102
4107,0.107,0.179102
4108,0.108,0.179102
4109,0.109,0.179102
4110,0.11,0.179102
4111,0.111,0.179102
4112,0.112,0.179102
4113,0.113,0.179102
4114,0.114,0.179102
4115,0.115,0.179102
4116,0.116,0.179102
4117,0.117,0.179102
4118,0.118,0.179102
4119,0.119,0.179102
4120,0.12,0.179102
4121,0.121,0.179102
4122,0.122,0.179102
4123,0.123,0.179102
4124,0.124,0.179102
4125,0.125,0.179102
4126,0.126,0.179102
4127,0.127,0.179102
4128,0.128,0.179102
4129,0.129,0.179102
4130,0.13,0.179102
4131,0.131,0.179102
4132,0.132,0.175624
4133,0.133,0.142586
4134,0.134,-0.00521655
4135,0.135,0.00521655
4136,0.136,0.00521655
4137,0.137,0.00521655
4138,0.138,0.00521655
4139,0.139,0.00521655
4140,0.14,0.00521655
4141,0.141,0.00521655
4142,0.142,0.00521655
4143,0.143,0.00521655
4144,0.144,0.00521655
4145,0.145,0.00521655
4146,0.146,0.00521655
4147,0.147,0.00521655
4148,0.148,0.00521655
4149,0.149,0.00521655
4150,0.15,0.00521655
4151,0.151,0.00521655
4152,0.152,0.00521655
4153,0.153,0.00521655
4154,0.154,0.00521655
4155,0.155,0.00521655
4156,0.156,0.00521655
4157,0.157,0.00521655
4158,0.158,0.00521655
4159,0.159,0.00521655
4160,0.16,0.00521655
4161,0.161,0.00521655
4162,0.162,0.00521655
4163,0.163,0.00521655
4164,0.164,0.00521655
4165,0.165,0.00521655
4166,0.166,0.00521655
4167,0.167,0.00521655
4168,0.168,0.00521655
4169,0.169,0.00521655
4170,0.17,0.00521655
4171,0.171,0.00521655
4172,0.172,0.00521655
4173,0.173,0.00521655
4174,0.174,0.00521655
4175,0.175,0.00521655
4176,0.176,0.00521655
4177,0.177,0.00521655
4178,0.178,0.00521655
4179,0.179,0.00521655
4180,0.18,0.00521655
4181,0.181,0.00521655
4182,0.182,0.00521655
4183,0.183,0.00521655
4184,0.184,0.00521655
4185,0.185,0.00521655
4186,0.186,0.00521655
4187,0.187,0.00521655
4188,0.188,0.00521655
4189,0.189,0.00521655
4190,0.19,0.00521655
4191,0.191,0.00521655
4192,0.192,0.00521655
4193,0.193,0.00521655
4194,0.194,0.00521655
4195,0.195,0.00521655
4196,0.196,0.00521655
4197,0.197,0.00521655
4198,0.198,0.00521655
4199,0.199,0.00521655
4200,0.2,0.00521655
4201,0.201,0.00521655
4202,0.202,0.00521655
4203,0.203,0.00521655
4204,0.204,0.00521655
4205,0.205,0.00521655
4206,0.206,0.00521655
4207,0.207,0.00521655
4208,0.208,0.00521655
4209,0.209,0.00521655
4210,0.21,0.00521655
4211,0.211,0.00521655
4212,0.212,0.00521655
4213,0.213,0.00521655
4214,0.214,0.00521655
4215,0.215,0.00521655
4216,0.216,0.00521655
4217,0.217,0.00521655
4218,0.218,0.00521655
4219,0.219,0.00521655
4220,0.22,0.00521655
4221,0.221,0.00521655
4222,0.222,0.00521655
4223,0.223,0.00521655
4224,0.224,0.00521655
4225,0.225,0.00521655
4226,0.226,0.00521655
4227,0.227,0.00521655
4228,0.228,0.00521655
4229,0.229,0.00521655
4230,0.23,0.00521655
4231,0.231,0.00521655
4232,0.232,0.00521655
4233,0.233,0.00521655
4234,0.234,0.00521655
4235,0.235,0.00521655
4236,0.236,0.00521655
4237,0.237,0.00521655
4238,0.238,0.00521655
4239,0.239,0.00521655
4240,0.24,0.00521655
4241,0.241,0.00521655
4242,0.242,0.00521655
4243,0.243,0.00521655
4244,0.244,0.00521655
4245,0.245,0.00521655
4246,0.246,0.00521655
4247,0.247,0.00521655
4248,0.248,0.00521655
4249,0.249,0.00521655
4250,0.25,0.00521655
4251,0.251,0.00521655
4252,0.252,0.00521655
4253,0.253,0.00521655
4254,0.254,0.00521655
4255,0.255,0.00521655
4256,0.256,0.00521655
4257,0.257,0.00521655
4258,0.258,0.00521655
4259,0.259,0.00521655
4260,0.26,0.00521655
4261,0.261,0.00521655
4262,0.262,0.00521655
4263,0.263,0.00521655
4264,0.264,0.00521655
4265,0.265,0.00521655
4266,0.266,0.00521655
4267,0.267,0.00521655
4268,0.268,0.00521655
4269,0.269,0.00521655
4270,0.27,0.00521655
4271,0.271,0.00521655
4272,0.272,0.00521655
4273,0.273,0.00521655
4274,0.274,0.00521655
4275,0.275,0.00521655
4276,0.276,0.00521655
4277,0.277,0.00521655
4278,0.278,0.00521655
4279,0.279,0.00521655
4280,0.28,0.00521655
4281,0.281,0.00521655
4282,0.282,0.00521655
4283,0.283,0.00521655
4284,0.284,0.00521655
4285,0.285,0.00521655
4286,0.286,0.00521655
4287,0.287,0.00521655
4288,0.288,0.00521655
4289,0.289,0.00521655
4290,0.29,0.00521655
4291,0.291,0.00521655
4292,0.292,0.00521655
4293,0.293,0.00521655
4294,0.294,0.00521655
4295,0.295,0.00521655
4296,0.296,0.00521655
4297,0.297,0.00521655
4298,0.298,0.00521655
4299,0.299,0.00521655
4300,0.3,0.00521655
4301,0.301,0.00521655
4302,0.302,0.00521655
4303,0.303,0.00521655
4304,0.304,0.00521655
4305,0.305,0.00521655
4306,0.306,0.00521655
4307,0.307,0.00521655
4308,0.308,0.00521655
4309,0.309,0.00521655
4310,0.31,0.00521655
4311,0.311,0.00521655
4312,0.312,0.00521655
4313,0.313,0.00521655
4314,0.314,0.00521655
4315,0.315,0.00521655
4316,0.316,0.00521655
4317,0.317,0.00521655
4318,0.318,0.00521655
4319,0.319,0.00521655
4320,0.32,0.00521655
4321,0.321,0.00521655
4322,0.322,0.00521655
4323,0.323,0.00521655
4324,0.324,0.00521655
4325,0.325,0.00521655
4326,0.326,0.00521655
4327,0.327,0.00521655
4328,0.328,0.00521655
4329,0.329,0.00521655
4330,0.33,0.00521655
4331,0.331,0.00521655
4332,0.332,0.00521655
4333,0.333,0.00521655
4334,0.334,0.00521655
4335,0.335,0.00521655
4336,0.336,0.00521655
4337,0.337,0.00521655
4338,0.338,0.00521655
4339,0.339,0.00521655
4340,0.34,0.00521655
4341,0.341,0.00521655
4342,0.342,0.00521655
4343,0.343,0.00521655
4344,0.344,0.00521655
4345,0.345,0.00521655
4346,0.346,0.00521655
4347,0.347,0.00521655
4348,0.348,0.00521655
4349,0.349,0.00521655
4350,0.35,0.00521655
4351,0.351,0.00521655
4352,0.352,0.00521655
4353,0.353,0.00521655
4354,0.354,0.00521655
4355,0.355,0.00521655
4356,0.356,0.00521655
4357,0.357,0.00521655
4358,0.358,0.00521655
4359,0.359,0.00521655
4360,0.36,0.00521655
4361,0.361,0.00521655
4362,0.362,0.00521655
4363,0.363,0.00521655
4364,0.364,0.00521655
4365,0.365,0.00521655
4366,0.366,0.00521655
4367,0.367,0.00521655
4368,0.368,0.00521655
4369,0.369,0.00521655
4370,0.37,0.00521655
4371,0.371,0.00521655
4372,0.372,0.00521655
4373,0.373,0.00521655
4374,0.374,0.00521655
4375,0.375,0.00521655
4376,0.376,0.00521655
4377,0.377,0.00521655
4378,0.378,0.00521655
4379,0.379,0.00521655
4380,0.38,0.00521655
4381,0.381,0.00521655
4382,0.382,0.00521655
4383,0.383,0.00521655
4384,0.384,0.00521655
4385,0.385,0.00521655
4386,0.386,0.0034777
4387,0.387,0.00521655
4388,0.388,0.00521655
4389,0.389,0.00521655
4390,0.39,0.00521655
4391,0.391,0.00521655
4392,0.392,0.00521655
4393,0.393,0.00521655
4394,0.394,0.00521655
4395,0.395,0.00521655
4396,0.396,0.00521655
4397,0.397,0.00521655
4398,0.398,0.00521655
4399,0.399,0.00521655
4400,0.4,0.00521655
4401,0.401,0.00521655
4402,0.402,0.00521655
4403,0.403,0.00521655
4404,0.404,0.00521655
4405,0.405,0.00521655
4406,0.406,0.00521655
4407,0.407,0.00521655
4408,0.408,0.00521655
4409,0.409,0.00521655
4410,0.41,0.00521655
4411,0.411,0.00521655
4412,0.412,0.00521655
4413,0.413,0.00521655
4414,0.414,0.00521655
4415,0.415,0.00521655
4416,0.416,0.00521655
4417,0.417,0.00521655
4418,0.418,0.00521655
4419,0.419,0.00521655
4420,0.42,0.00521655
4421,0.421,0.00521655
4422,0.422,0.00521655
4423,0.423,0.00521655
4424,0.424,0.00521655
4425,0.425,0.00521655
4426,0.426,0.00521655
4427,0.427,0.00521655
4428,0.428,0.00521655
4429,0.429,0.00521655
4430,0.43,0.00521655
4431,0.431,0.00521655
4432,0.432,0.00521655
4433,0.433,0.00521655
4434,0.434,0.00521655
4435,0.435,0.00521655
4436,0.436,0.00521655
4437,0.437,0.00521655
4438,0.438,0.00521655
4439,0.439,0.00521655
4440,0.44,0.00521655
4441,0.441,0.00521655
4442,0.442,0.00521655
4443,0.443,0.00521655
4444,0.444,0.00521655
4445,0.445,0.00521655
4446,0.446,0.00521655
4447,0.447,0.00521655
4448,0.448,0.00521655
4449,0.449,0.00521655
4450,0.45,0.00521655
4451,0.451,0.00521655
4452,0.452,0.00521655
4453,0.453,0.00521655
4454,0.454,0.00521655
4455,0.455,0.00521655
4456,0.456,0.00521655
4457,0.457,0.00521655
4458,0.458,0.00521655
4459,0.459,0.00521655
4460,0.46,0.00521655
4461,0.461,0.00521655
4462,0.462,0.00521655
4463,0.463,0.00521655
4464,0.464,0.00521655
4465,0.465,0.00521655
4466,0.466,0.00521655
4467,0.467,0.00521655
4468,0.468,0.00521655
4469,0.469,0.00521655
4470,0.47,0.00521655
4471,0.471,0.00521655
4472,0.472,0.00521655
4473,0.473,0.00521655
4474,0.474,0.00521655
4475,0.475,0.00521655
4476,0.476,0.00521655
4477,0.477,0.00521655
4478,0.478,0.00521655
4479,0.479,0.00521655
4480,0.48,0.00521655
4481,0.481,0.00521655
4482,0.482,0.00521655
4483,0.483,0.00521655
4484,0.484,0.00521655
4485,0.485,0.00521655
4486,0.486,0.00521655
4487,0.487,0.00521655
4488,0.488,0.00521655
4489,0.489,0.00521655
4490,0.49,0.00521655
4491,0.491,0.00521655
4492,0.492,0.00521655
4493,0.493,0.00521655
4494,0.494,0.00521655
4495,0.495,0.00521655
4496,0.496,0.00521655
4497,0.497,0.00521655
4498,0.498,0.00521655
4499,0.499,0.00521655
4500,0.5,0.00521655
4501,0.501,0.00521655
4502,0.502,0.00521655
4503,0.503,0.00521655
4504,0.504,0.00521655
4505,0.505,0.00521655
4506,0.506,0.00521655
4507,0.507,0.00521655
4508,0.508,0.00521655
4509,0.509,0.00521655
4510,0.51,0.00521655
4511,0.511,0.00521655
4512,0.512,0.00521655
4513,0.513,0.00521655
4514,0.514,0.00521655
4515,0.515,0.00521655
4516,0.516,0.00521655
4517,0.517,0.00521655
4518,0.518,0.00521655
4519,0.519,0.00521655
4520,0.52,0.00521655
4521,0.521,0.00521655
4522,0.522,0.00521655
4523,0.523,0.00521655
4524,0.524,0.00521655
4525,0.525,0.00521655
4526,0.526,0.00521655
4527,0.527,0.00521655
4528,0.528,0.00521655
4529,0.529,0.00521655
4530,0.53,0.00521655
4531,0.531,0.00521655
4532,0.532,0.00521655
4533,0.533,0.00521655
4534,0.534,0.00521655
4535,0.535,0.00521655
4536,0.536,0.00521655
4537,0.537,0.00521655
4538,0.538,0.00521655
4539,0.539,0.00521655
4540,0.54,0.00521655
4541,0.541,0.00521655
4542,0.542,0.00521655
4543,0.543,0.00521655
4544,0.544,0.00521655
4545,0.545,0.00521655
4546,0.546,0.00521655
4547,0.547,0.00521655
4548,0.548,0.00521655
4549,0.549,0.00521655
4550,0.55,0.00521655
4551,0.551,0.00521655
4552,0.552,0.00521655
4553,0.553,0.00521655
4554,0.554,0.00521655
4555,0.555,0.00521655
4556,0.556,0.00521655
4557,0.557,0.00521655
4558,0.558,0.00521655
4559,0.559,0.00521655
4560,0.56,0.00521655
4561,0.561,0.00521655
4562,0.562,0.00521655
4563,0.563,0.00521655
4564,0.564,0.00521655
4565,0.565,0.00521655
4566,0.566,0.00521655
4567,0.567,0.00521655
4568,0.568,0.00521655
4569,0.569,0.00521655
4570,0.57,0.00521655
4571,0.571,0.00521655
4572,0.572,0.00521655
4573,0.573,0.00521655
4574,0.574,0.00521655
4575,0.575,0.00521655
4576,0.576,0.00521655
4577,0.577,0.00521655
4578,0.578,0.00521655
4579,0.579,0.00521655
4580,0.58,0.00521655
4581,0.581,0.00521655
4582,0.582,0.00521655
4583,0.583,0.00521655
4584,0.584,0.00521655
4585,0.585,0.00521655
4586,0.586,0.00521655
4587,0.587,0.00521655
4588,0.588,0.00521655
4589,0.589,0.00521655
4590,0.59,0.00521655
4591,0.591,0.00521655
4592,0.592,0.00521655
4593,0.593,0.00521655
4594,0.594,0.00521655
4595,0.595,0.00521655
4596,0.596,0.00521655
4597,0.597,0.00521655
4598,0.598,0.00521655
4599,0.599,0.00521655
4600,0.6,0.00521655
4601,0.601,0.00521655
4602,0.602,0.00521655
4603,0.603,0.00521655
4604,0.604,0.00521655
4605,0.605,0.00521655
4606,0.606,0.00521655
4607,0.607,0.00521655
4608,0.608,0.00521655
4609,0.609,0.00521655
4610,0.61,0.00521655
4611,0.611,0.00521655
4612,0.612,0.00521655
4613,0.613,0.00521655
4614,0.614,0.00521655
4615,0.615,0.00521655
4616,0.616,0.00521655
4617,0.617,0.00521655
4618,0.618,0.00521655
4619,0.619,0.00521655
4620,0.62,0.00521655
4621,0.621,0.00521655
4622,0.622,0.00521655
4623,0.623,0.00521655
4624,0.624,0.00521655
4625,0.625,0.00521655
4626,0.626,0.00521655
4627,0.627,0.00521655
4628,0.628,0.00521655
4629,0.629,0.00521655
4630,0.63,0.00521655
4631,0.631,0.00521655
4632,0.632,0.00521655
4633,0.633,0.00521655
4634,0.634,0.0034777
4635,0.635,0.00521655
4636,0.636,0.00521655
4637,0.637,0.00521655
4638,0.638,0.00521655
4639,0.639,0.00521655
4640,0.64,0.00521655
4641,0.641,0.00521655
4642,0.642,0.00521655
4643,0.643,0.00521655
4644,0.644,0.00521655
4645,0.645,0.00521655
4646,0.646,0.00521655
4647,0.647,0.00521655
4648,0.648,0.00521655
4649,0.649,0.00521655
4650,0.65,0.00521655
4651,0.651,0.00521655
4652,0.652,0.00521655
4653,0.653,0.00521655
4654,0.654,0.00521655
4655,0.655,0.00521655
4656,0.656,0.00521655
4657,0.657,0.00521655
4658,0.658,0.00521655
4659,0.659,0.00521655
4660,0.66,0.00521655
4661,0.661,0.00521655
4662,0.662,0.00521655
4663,0.663,0.00521655
4664,0.664,0.00521655
4665,0.665,0.00521655
4666,0.666,0.00521655
4667,0.667,0.00521655
4668,0.668,0.00521655
4669,0.669,0.00521655
4670,0.67,0.00521655
4671,0.671,0.00521655
4672,0.672,0.00521655
4673,0.673,0.00521655
4674,0.674,0.00521655
4675,0.675,0.00521655
4676,0.676,0.00521655
4677,0.677,0.00521655
4678,0.678,0.00521655
4679,0.679,0.00521655
4680,0.68,0.00521655
4681,0.681,0.00521655
4682,0.682,0.00521655
4683,0.683,0.00521655
4684,0.684,0.00521655
4685,0.685,0.00521655
4686,0.686,0.00521655
4687,0.687,0.00521655
4688,0.688,0.00521655
4689,0.689,0.00521655
4690,0.69,0.00521655
4691,0.691,0.00521655
4692,0.692,0.00521655
4693,0.693,0.00521655
4694,0.694,0.00521655
4695,0.695,0.00521655
4696,0.696,0.00521655
4697,0.697,0.00521655
4698,0.698,0.00521655
4699,0.699,0.00521655
4700,0.7,0.00521655
4701,0.701,0.00521655
4702,0.702,0.00521655
4703,0.703,0.00521655
4704,0.704,0.00521655
4705,0.705,0.00521655
4706,0.706,0.00521655
4707,0.707,0.00521655
4708,0.708,0.00521655
4709,0.709,0.00521655
4710,0.71,0.00521655
4711,0.711,0.00521655
4712,0.712,0.00521655
4713,0.713,0.00521655
4714,0.714,0.00521655
4715,0.715,0.00521655
4716,0.716,0.00521655
4717,0.717,0.00521655
4718,0.718,0.00521655
4719,0.719,0.00521655
4720,0.72,0.00521655
4721,0.721,0.00521655
4722,0.722,0.00521655
4723,0.723,0.00521655
4724,0.724,0.00521655
4725,0.725,0.00521655
4726,0.726,0.00521655
4727,0.727,0.00521655
4728,0.728,0.00521655
4729,0.729,0.00521655
4730,0.73,0.00521655
4731,0.731,0.00521655
4732,0.732,0.00521655
4733,0.733,0.00521655
4734,0.734,0.00521655
4735,0.735,0.00521655
4736,0.736,0.00521655
4737,0.737,0.00521655
4738,0.738,0.00521655
4739,0.739,0.00521655
4740,0.74,0.00521655
4741,0.741,0.00521655
4742,0.742,0.00521655
4743,0.743,0.00521655
4744,0.744,0.00521655
4745,0.745,0.00521655
4746,0.746,0.00521655
4747,0.747,0.00521655
4748,0.748,0.00521655
4749,0.749,0.00521655
4750,0.75,0.00521655
4751,0.751,0.00521655
4752,0.752,0.00521655
4753,0.753,0.00521655
4754,0.754,0.00521655
4755,0.755,0.00521655
4756,0.756,0.00521655
4757,0.757,0.00521655
4758,0.758,0.00521655
4759,0.759,0.00521655
4760,0.76,0.00521655
4761,0.761,0.00521655
4762,0.762,0.00521655
4763,0.763,0.00521655
4764,0.764,0.00521655
4765,0.765,0.00521655
4766,0.766,0.00521655
4767,0.767,0.00521655
4768,0.768,0.00521655
4769,0.769,0.00521655
4770,0.77,0.00521655
4771,0.771,0.00521655
4772,0.772,0.00521655
4773,0.773,0.00521655
4774,0.774,0.00521655
4775,0.775,0.00521655
4776,0.776,0.00521655
4777,0.777,0.00521655
4778,0.778,0.00521655
4779,0.779,0.00521655
4780,0.78,0.00521655
4781,0.781,0.00521655
4782,0.782,0.00521655
4783,0.783,0.00521655
4784,0.784,0.00521655
4785,0.785,0.00521655
4786,0.786,0.00521655
4787,0.787,0.00521655
4788,0.788,0.00521655
4789,0.789,0.00521655
4790,0.79,0.00521655
4791,0.791,0.00521655
4792,0.792,0.00521655
4793,0.793,0.00521655
4794,0.794,0.00521655
4795,0.795,0.00521655
4796,0.796,0.00521655
4797,0.797,0.00521655
4798,0.798,0.00521655
4799,0.799,0.00521655
4800,0.8,0.00521655
4801,0.801,0.00521655
4802,0.802,0.00521655
4803,0.803,0.00521655
4804,0.804,0.00521655
4805,0.805,0.00521655
4806,0.806,0.00521655
4807,0.807,0.00521655
4808,0.808,0.00521655
4809,0.809,0.00521655
4810,0.81,0.00521655
4811,0.811,0.00521655
4812,0.812,0.00521655
4813,0.813,0.00521655
4814,0.814,0.00521655
4815,0.815,0.00521655
4816,0.816,0.00521655
4817,0.817,0.00521655
4818,0.818,0.00521655
4819,0.819,0.00521655
4820,0.82,0.00521655
4821,0.821,0.00521655
4822,0.822,0.00521655
4823,0.823,0.00521655
4824,0.824,0.00521655
4825,0.825,0.00521655
4826,0.826,0.00521655
4827,0.827,0.00521655
4828,0.828,0.00521655
4829,0.829,0.00521655
4830,0.83,0.00521655
4831,0.831,0.00521655
4832,0.832,0.00521655
4833,0.833,0.00521655
4834,0.834,0.00521655
4835,0.835,0.00521655
4836,0.836,0.00521655
4837,0.837,0.00521655
4838,0.838,0.00521655
4839,0.839,0.00521655
4840,0.84,0.00521655
4841,0.841,0.00521655
4842,0.842,0.00521655
4843,0.843,0.00521655
4844,0.844,0.00521655
4845,0.845,0.00521655
4846,0.846,0.00521655
4847,0.847,0.00521655
4848,0.848,0.00521655
4849,0.849,0.00521655
4850,0.85,0.00521655
4851,0.851,0.00521655
4852,0.852,0.00521655
4853,0.853,0.00521655
4854,0.854,0.00521655
4855,0.855,0.00521655
4856,0.856,0.00521655
4857,0.857,0.00521655
4858,0.858,0.00521655
4859,0.859,0.00521655
4860,0.86,0.00521655
4861,0.861,0.00521655
4862,0.862,0.00521655
4863,0.863,0.00521655
4864,0.864,0.00521655
4865,0.865,0.00521655
4866,0.866,0.00521655
4867,0.867,0.00521655
4868,0.868,0.00521655
4869,0.869,0.00521655
4870,0.87,0.00521655
4871,0.871,0.00521655
4872,0.872,0.00521655
4873,0.873,0.00521655
4874,0.874,0.00521655
4875,0.875,0.00521655
4876,0.876,0.00521655
4877,0.877,0.00521655
4878,0.878,0.00521655
4879,0.879,0.00521655
4880,0.88,0.00521655
4881,0.881,0.00521655
4882,0.882,0.00521655
4883,0.883,0.00521655
4884,0.884,0.00521655
4885,0.885,0.00521655
4886,0.886,0.00521655
4887,0.887,0.00521655
4888,0.888,0.00521655
4889,0.889,0.00521655
4890,0.89,0.00521655
4891,0.891,0.00521655
4892,0.892,0.00521655
4893,0.893,0.00521655
4894,0.894,0.00521655
4895,0.895,0.00521655
4896,0.896,0.00521655
4897,0.897,0.00521655
4898,0.898,0.00521655
4899,0.899,0.00521655
4900,0.9,0.00521655
4901,0.901,0.00521655
4902,0.902,0.00521655
4903,0.903,0.00521655
4904,0.904,0.00521655
4905,0.905,0.00521655
4906,0.906,0.00521655
4907,0.907,0.00521655
4908,0.908,0.00521655
4909,0.909,0.00521655
4910,0.91,0.00521655
4911,0.911,0.00521655
4912,0.912,0.00521655
4913,0.913,0.00521655
4914,0.914,0.00521655
4915,0.915,0.00521655
4916,0.916,0.00521655
4917,0.917,0.00521655
4918,0.918,0.00521655
4919,0.919,0.00521655
4920,0.92,0.00521655
4921,0.921,0.00521655
4922,0.922,0.00521655
4923,0.923,0.00521655
4924,0.924,0.00521655
4925,0.925,0.00521655
4926,0.926,0.00521655
4927,0.927,0.00521655
4928,0.928,0.00521655
4929,0.929,0.00521655
4930,0.93,0.00521655
4931,0.931,0.00521655
4932,0.932,0.00521655
4933,0.933,0.00521655
4934,0.934,0.00521655
4935,0.935,0.00521655
4936,0.936,0.00521655
4937,0.937,0.00521655
4938,0.938,0.00521655
4939,0.939,0.00521655
4940,0.94,0.00521655
4941,0.941,0.00521655
4942,0.942,0.00521655
4943,0.943,0.00521655
4944,0.944,0.00521655
4945,0.945,0.00521655
4946,0.946,0.00521655
4947,0.947,0.00521655
4948,0.948,0.00521655
4949,0.949,0.00521655
4950,0.95,0.00521655
4951,0.951,0.00521655
4952,0.952,0.00521655
4953,0.953,0.00521655
4954,0.954,0.00521655
4955,0.955,0.00521655
4956,0.956,0.00521655
4957,0.957,0.00521655
4958,0.958,0.00521655
4959,0.959,0.00521655
4960,0.96,0.00521655
4961,0.961,0.00521655
4962,0.962,0.00521655
4963,0.963,0.00521655
4964,0.964,0.00521655
4965,0.965,0.00521655
4966,0.966,0.00521655
4967,0.967,0.00521655
4968,0.968,0.00521655
4969,0.969,0.00521655
4970,0.97,0.00521655
4971,0.971,0.00521655
4972,0.972,0.00521655
4973,0.973,0.00521655
4974,0.974,0.00521655
4975,0.975,0.00521655
4976,0.976,0.00521655
4977,0.977,0.00521655
4978,0.978,0.00521655
4979,0.979,0.00521655
4980,0.98,0.00521655
4981,0.981,0.00521655
4982,0.982,0.00521655
4983,0.983,0.00521655
4984,0.984,0.00521655
4985,0.985,0.00521655
4986,0.986,0.00521655
4987,0.987,0.00521655
4988,0.988,0.00521655
4989,0.989,0.00521655
4990,0.99,0.00521655
4991,0.991,0.00521655
4992,0.992,0.00521655
4993,0.993,0.00521655
4994,0.994,0.00521655
4995,0.995,0.00521655
4996,0.996,0.00521655
4997,0.997,0.00521655
4998,0.998,0.00521655
4999,0.999,0.00521655
5000,1,0.00521655
5001,1.001,0.00521655
5002,1.002,0.00521655
5003,1.003,0.00521655
5004,1.004,0.00521655
5005,1.005,0.00521655
5006,1.006,0.00521655
5007,1.007,0.00521655
5008,1.008,0.00521655
5009,1.009,0.00521655
5010,1.01,0.00521655
5011,1.011,0.00521655
5012,1.012,0.00521655
5013,1.013,0.00521655
5014,1.014,0.00521655
5015,1.015,0.00521655
5016,1.016,0.00521655
5017,1.017,0.00521655
5018,1.018,0.00521655
5019,1.019,0.00521655
5020,1.02,0.00521655
5021,1.021,0.00521655
5022,1.022,0.00521655
5023,1.023,0.00521655
5024,1.024,0.00521655
5025,1.025,0.00521655
5026,1.026,0.00521655
5027,1.027,0.00521655
5028,1.028,0.00521655
5029,1.029,0.00521655
5030,1.03,0.00521655
5031,1.031,0.00521655
5032,1.032,0.00521655
5033,1.033,0.00521655
5034,1.034,0.00521655
5035,1.035,0.00521655
5036,1.036,0.00521655
5037,1.037,0.00521655
5038,1.038,0.00521655
5039,1.039,0.00521655
5040,1.04,0.00521655
5041,1.041,0.00521655
5042,1.042,0.00521655
5043,1.043,0.00521655
5044,1.044,0.00521655
5045,1.045,0.00521655
5046,1.046,0.00521655
5047,1.047,0.00521655
5048,1.048,0.00521655
5049,1.049,0.00521655
5050,1.05,0.00521655
5051,1.051,0.00521655
5052,1.052,0.00521655
5053,1.053,0.00521655
5054,1.054,0.00521655
5055,1.055,0.00521655
5056,1.056,0.00521655
5057,1.057,0.00521655
5058,1.058,0.00521655
5059,1.059,0.00521655
5060,1.06,0.00521655
5061,1.061,0.00521655
5062,1.062,0.00521655
5063,1.063,0.00521655
5064,1.064,0.00521655
5065,1.065,0.00521655
5066,1.066,0.00521655
5067,1.067,0.00521655
5068,1.068,0.00521655
5069,1.069,0.00521655
5070,1.07,0.00521655
5071,1.071,0.00521655
5072,1.072,0.00521655
5073,1.073,0.00521655
5074,1.074,0.00521655
5075,1.075,0.00521655
5076,1.076,0.00521655
5077,1.077,0.00521655
5078,1.078,0.00521655
5079,1.079,0.00521655
5080,1.08,0.00521655
5081,1.081,0.00521655
5082,1.082,0.00521655
5083,1.083,0.00521655
5084,1.084,0.00521655
5085,1.085,0.00521655
5086,1.086,0.00521655
5087,1.087,0.00521655
5088,1.088,0.00521655
5089,1.089,0.00521655
5090,1.09,0.00521655
5091,1.091,0.00521655
5092,1.092,0.00521655
5093,1.093,0.00521655
5094,1.094,0.00521655
5095,1.095,0.00521655
5096,1.096,0.00521655
5097,1.097,0.00521655
5098,1.098,0.00521655
5099,1.099,0.00521655
5100,1.1,0.00521655
5101,1.101,0.00521655
5102,1.102,0.00521655
5103,1.103,0.00521655
5104,1.104,0.00521655
5105,1.105,0.00521655
5106,1.106,0.00521655
5107,1.107,0.00521655
5108,1.108,0.00521655
5109,1.109,0.00521655
5110,1.11,0.00521655
5111,1.111,0.00521655
5112,1.112,0.00521655
5113,1.113,0.00521655
5114,1.114,0.00521655
5115,1.115,0.00521655
5116,1.116,0.00521655
5117,1.117,0.00521655
5118,1.118,0.00521655
5119,1.119,0.00521655
5120,1.12,0.00521655
5121,1.121,0.00521655
5122,1.122,0.00521655
5123,1.123,0.00521655
5124,1.124,0.00521655
5125,1.125,0.00521655
5126,1.126,0.00521655
5127,1.127,0.00521655
5128,1.128,0.00521655
5129,1.129,0.00521655
5130,1.13,0.00521655
5131,1.131,0.00521655
5132,1.132,0.00521655
5133,1.133,0.00521655
5134,1.134,0.00521655
5135,1.135,0.00521655
5136,1.136,0.00521655
5137,1.137,0.00521655
5138,1.138,0.00521655
5139,1.139,0.00521655
5140,1.14,0.00521655
5141,1.141,0.00521655
5142,1.142,0.00521655
5143,1.143,0.00521655
5144,1.144,0.00521655
5145,1.145,0.00521655
5146,1.146,0.00521655
5147,1.147,0.00521655
5148,1.148,0.00521655
5149,1.149,0.00521655
5150,1.15,0.00521655
5151,1.151,0.00521655
5152,1.152,0.00521655
5153,1.153,0.00521655
5154,1.154,0.00521655
5155,1.155,0.00521655
5156,1.156,0.00521655
5157,1.157,0.00521655
5158,1.158,0.00521655
5159,1.159,0.00521655
5160,1.16,0.00521655
5161,1.161,0.00521655
5162,1.162,0.00521655
5163,1.163,0.00521655
5164,1.164,0.00521655
5165,1.165,0.00521655
5166,1.166,0.00521655
5167,1.167,0.00521655
5168,1.168,0.00521655
5169,1.169,0.00521655
5170,1.17,0.00521655
5171,1.171,0.00521655
5172,1.172,0.00521655
5173,1.173,0.00521655
5174,1.174,0.00521655
5175,1.175,0.00521655
5176,1.176,0.00521655
5177,1.177,0.00521655
5178,1.178,0.00521655
5179,1.179,0.00521655
5180,1.18,0.00521655
5181,1.181,0.00521655
5182,1.182,0.00521655
5183,1.183,0.00521655
5184,1.184,0.00521655
5185,1.185,0.00521655
5186,1.186,0.00521655
5187,1.187,0.00521655
5188,1.188,0.00521655
5189,1.189,0.00521655
5190,1.19,0.00521655
5191,1.191,0.00521655
5192,1.192,0.00521655
5193,1.193,0.00521655
5194,1.194,0.00521655
5195,1.195,0.00521655
5196,1.196,0.00521655
5197,1.197,0.00521655
5198,1.198,0.00521655
5199,1.199,0.00521655
5200,1.2,0.00521655
5201,1.201,0.00521655
5202,1.202,0.00521655
5203,1.203,0.00521655
5204,1.204,0.00521655
5205,1.205,0.00521655
5206,1.206,0.00521655
5207,1.207,0.00521655
5208,1.208,0.00521655
5209,1.209,0.00521655
5210,1.21,0.00521655
5211,1.211,0.00521655
5212,1.212,0.00521655
5213,1.213,0.00521655
5214,1.214,0.00521655
5215,1.215,0.00521655
5216,1.216,0.00521655
5217,1.217,0.00521655
5218,1.218,0.00521655
5219,1.219,0.00521655
5220,1.22,0.00521655
5221,1.221,0.00521655
5222,1.222,0.00521655
5223,1.223,0.00521655
5224,1.224,0.00521655
5225,1.225,0.0330382
5226,1.226,0.123458
5227,1.227,0.182579
5228,1.228,0.179102
5229,1.229,0.179102
5230,1.23,0.179102
5231,1.231,0.179102
5232,1.232,0.179102
5233,1.233,0.179102
5234,1.234,0.179102
5235,1.235,0.179102
5236,1.236,0.179102
5237,1.237,0.179102
5238,1.238,0.179102
5239,1.239,0.179102
5240,1.24,0.179102
5241,1.241,0.179102
5242,1.242,0.179102
5243,1.243,0.179102
5244,1.244,0.179102
5245,1.245,0.179102
5246,1.246,0.179102
5247,1.247,0.179102
5248,1.248,0.179102
5249,1.249,0.179102
5250,1.25,0.179102
5251,1.251,0.179102
5252,1.252,0.179102
5253,1.253,0.179102
5254,1.254,0.179102
5255,1.255,0.179102
5256,1.256,0.179102
5257,1.257,0.179102
5258,1.258,0.179102
5259,1.259,0.179102
5260,1.26,0.179102
5261,1.261,0.179102
5262,1.262,0.179102
5263,1.263,0.179102
5264,1.264,0.179102
5265,1.265,0.179102
5266,1.266,0.179102
5267,1.267,0.179102
5268,1.268,0.179102
5269,1.269,0.179102
5270,1.27,0.179102
5271,1.271,0.179102
5272,1.272,0.179102
5273,1.273,0.179102
5274,1.274,0.179102
5275,1.275,0.179102
5276,1.276,0.179102
5277,1.277,0.179102
5278,1.278,0.179102
5279,1.279,0.179102
5280,1.28,0.179102
5281,1.281,0.179102
5282,1.282,0.179102
5283,1.283,0.179102
5284,1.284,0.179102
5285,1.285,0.179102
5286,1.286,0.179102
5287,1.287,0.179102
5288,1.288,0.179102
5289,1.289,0.179102
5290,1.29,0.179102
5291,1.291,0.179102
5292,1.292,0.179102
5293,1.293,0.179102
5294,1.294,0.179102
5295,1.295,0.179102
5296,1.296,0.179102
5297,1.297,0.179102
5298,1.298,0.179102
5299,1.299,0.179102
5300,1.3,0.179102
5301,1.301,0.179102
5302,1.302,0.179102
5303,1.303,0.179102
5304,1.304,0.179102
5305,1.305,0.179102
5306,1.306,0.179102
5307,1.307,0.179102
5308,1.308,0.179102
5309,1.309,0.179102
5310,1.31,0.179102
5311,1.311,0.179102
5312,1.312,0.179102
5313,1.313,0.179102
5314,1.314,0.179102
5315,1.315,0.179102
5316,1.316,0.179102
5317,1.317,0.179102
5318,1.318,0.179102
5319,1.319,0.179102
5320,1.32,0.179102
5321,1.321,0.179102
5322,1.322,0.179102
5323,1.323,0.179102
5324,1.324,0.179102
5325,1.325,0.179102
5326,1.326,0.179102
5327,1.327,0.179102
5328,1.328,0.179102
5329,1.329,0.179102
5330,1.33,0.179102
5331,1.331,0.179102
5332,1.332,0.179102
5333,1.333,0.179102
5334,1.334,0.179102
5335,1.335,0.179102
5336,1.336,0.179102
5337,1.337,0.179102
5338,1.338,0.179102
5339,1.339,0.179102
5340,1.34,0.179102
5341,1.341,0.179102
5342,1.342,0.179102
5343,1.343,0.179102
5344,1.344,0.179102
5345,1.345,0.179102
5346,1.346,0.179102
5347,1.347,0.179102
5348,1.348,0.179102
5349,1.349,0.179102
5350,1.35,0.179102
5351,1.351,0.179102
5352,1.352,0.179102
5353,1.353,0.179102
5354,1.354,0.179102
5355,1.355,0.179102
5356,1.356,0.179102
5357,1.357,0.179102
5358,1.358,0.173885
5359,1.359,0.161713
5360,1.36,-0.00521655
5361,1.361,0.00521655
5362,1.362,0.00521655
5363,1.363,0.00521655
5364,1.364,0.00521655
5365,1.365,0.00521655
5366,1.366,0.00521655
5367,1.367,0.00521655
5368,1.368,0.00521655
5369,1.369,0.00521655
5370,1.37,0.00521655
5371,1.371,0.00521655
5372,1.372,0.00521655
5373,1.373,0.00521655
5374,1.374,0.00521655
5375,1.375,0.00521655
5376,1.376,0.00521655
5377,1.377,0.00521655
5378,1.378,0.00521655
5379,1.379,0.00521655
5380,1.38,0.00521655
5381,1.381,0.00521655
5382,1.382,0.00521655
5383,1.383,0.00521655
5384,1.384,0.00521655
5385,1.385,0.00521655
5386,1.386,0.00521655
5387,1.387,0.00521655
5388,1.388,0.00521655
5389,1.389,0.00521655
5390,1.39,0.00521655
5391,1.391,0.00521655
5392,1.392,0.00521655
5393,1.393,0.00521655
5394,1.394,0.00521655
5395,1.395,0.00521655
5396,1.396,0.00521655
5397,1.397,0.00521655
5398,1.398,0.00521655
5399,1.399,0.00521655
5400,1.4,0.00521655
5401,1.401,0.00521655
5402,1.402,0.00521655
5403,1.403,0.00521655
5404,1.404,0.00521655
5405,1.405,0.00521655
5406,1.406,0.00521655
5407,1.407,0.00521655
5408,1.408,0.00521655
5409,1.409,0.00521655
5410,1.41,0.00521655
5411,1.411,0.00521655
5412,1.412,0.00521655
5413,1.413,0.00521655
5414,1.414,0.00521655
5415,1.415,0.00521655
5416,1.416,0.00521655
5417,1.417,0.00521655
5418,1.418,0.00521655
5419,1.419,0.00521655
5420,1.42,0.00521655
5421,1.421,0.00521655
5422,1.422,0.00521655
5423,1.423,0.00521655
5424,1.424,0.00521655
5425,1.425,0.00521655
5426,1.426,0.00521655
5427,1.427,0.00521655
5428,1.428,0.00521655
5429,1.429,0.00521655
5430,1.43,0.00521655
5431,1.431,0.00521655
5432,1.432,0.00521655
5433,1.433,0.00521655
5434,1.434,0.00521655
5435,1.435,0.00521655
5436,1.436,0.00521655
5437,1.437,0.00521655
5438,1.438,0.00521655
5439,1.439,0.00521655
5440,1.44,0.00521655
5441,1.441,0.00521655
5442,1.442,0.00521655
5443,1.443,0.00521655
5444,1.444,0.00521655
5445,1.445,0.00521655
5446,1.446,0.00521655
5447,1.447,0.00521655
5448,1.448,0.00521655
5449,1.449,0.00521655
5450,1.45,0.00521655
5451,1.451,0.00521655
5452,1.452,0.00521655
5453,1.453,0.00521655
5454,1.454,0.00521655
5455,1.455,0.00521655
5456,1.456,0.00521655
5457,1.457,0.00521655
5458,1.458,0.00521655
5459,1.459,0.00521655
5460,1.46,0.00521655
5461,1.461,0.00521655
5462,1.462,0.00521655
5463,1.463,0.00521655
5464,1.464,0.00521655
5465,1.465,0.00521655
5466,1.466,0.00521655
5467,1.467,0.00521655
5468,1.468,0.00521655
5469,1.469,0.00521655
5470,1.47,0.00521655
5471,1.471,0.00521655
5472,1.472,0.00521655
5473,1.473,0.00521655
5474,1.474,0.00521655
5475,1.475,0.00521655
5476,1.476,0.00521655
5477,1.477,0.00521655
5478,1.478,0.00521655
5479,1.479,0.00521655
5480,1.48,0.00521655
5481,1.481,0.00521655
5482,1.482,0.00521655
5483,1.483,0.00521655
5484,1.484,0.00521655
5485,1.485,0.00521655
5486,1.486,0.00521655
5487,1.487,0.00521655
5488,1.488,0.00521655
5489,1.489,0.00521655
5490,1.49,0.00521655
5491,1.491,0.00521655
5492,1.492,0.00521655
5493,1.493,0.00521655
5494,1.494,0.00521655
5495,1.495,0.00521655
5496,1.496,0.00521655
5497,1.497,0.00521655
5498,1.498,0.00521655
5499,1.499,0.00521655
5500,1.5,0.00521655
5501,1.501,0.00521655
5502,1.502,0.00521655
5503,1.503,0.00521655
5504,1.504,0.00521655
5505,1.505,0.00521655
5506,1.506,0.00521655
5507,1.507,0.00521655
5508,1.508,0.00521655
5509,1.509,0.00521655
5510,1.51,0.00521655
5511,1.511,0.00521655
5512,1.512,0.00521655
5513,1.513,0.00521655
5514,1.514,0.00521655
5515,1.515,0.00521655
5516,1.516,0.00521655
5517,1.517,0.00521655
5518,1.518,0.00521655
5519,1.519,0.00521655
5520,1.52,0.00521655
5521,1.521,0.00521655
5522,1.522,0.00521655
5523,1.523,0.00521655
5524,1.524,0.00521655
5525,1.525,0.00521655
5526,1.526,0.00521655
5527,1.527,0.00521655
5528,1.528,0.00521655
5529,1.529,0.00521655
5530,1.53,0.00521655
5531,1.531,0.00521655
5532,1.532,0.00521655
5533,1.533,0.00521655
5534,1.534,0.00521655
5535,1.535,0.00521655
5536,1.536,0.00521655
5537,1.537,0.00521655
5538,1.538,0.00521655
5539,1.539,0.00521655
5540,1.54,0.00521655
5541,1.541,0.00521655
5542,1.542,0.00521655
5543,1.543,0.00521655
5544,1.544,0.00521655
5545,1.545,0.00521655
5546,1.546,0.00521655
5547,1.547,0.00521655
5548,1.548,0.00521655
5549,1.549,0.00521655
5550,1.55,0.00521655
5551,1.551,0.00521655
5552,1.552,0.00521655
5553,1.553,0.00521655
5554,1.554,0.00521655
5555,1.555,0.00521655
5556,1.556,0.00521655
5557,1.557,0.00521655
5558,1.558,0.00521655
5559,1.559,0.00521655
5560,1.56,0.00521655
5561,1.561,0.00521655
5562,1.562,0.00521655
5563,1.563,0.00521655
5564,1.564,0.00521655
5565,1.565,0.00521655
5566,1.566,0.00521655
5567,1.567,0.00521655
5568,1.568,0.00521655
5569,1.569,0.00521655
5570,1.57,0.00521655
5571,1.571,0.00521655
5572,1.572,0.00521655
5573,1.573,0.00521655
5574,1.574,0.00521655
5575,1.575,0.00521655
5576,1.576,0.00521655
5577,1.577,0.00521655
5578,1.578,0.00521655
5579,1.579,0.00521655
5580,1.58,0.00521655
5581,1.581,0.00521655
5582,1.582,0.00521655
5583,1.583,0.00521655
5584,1.584,0.00521655
5585,1.585,0.00521655
5586,1.586,0.00521655
5587,1.587,0.00521655
5588,1.588,0.00521655
5589,1.589,0.00521655
5590,1.59,0.00521655
5591,1.591,0.00521655
5592,1.592,0.00521655
5593,1.593,0.00521655
5594,1.594,0.00521655
5595,1.595,0.00521655
5596,1.596,0.00521655
5597,1.597,0.00521655
5598,1.598,0.00521655
5599,1.599,0.00521655
5600,1.6,0.00521655
5601,1.601,0.00521655
5602,1.602,0.00521655
5603,1.603,0.00521655
5604,1.604,0.00521655
5605,1.605,0.00521655
5606,1.606,0.00521655
5607,1.607,0.00521655
5608,1.608,0.00521655
5609,1.609,0.00521655
5610,1.61,0.00521655
5611,1.611,0.00521655
5612,1.612,0.00521655
5613,1.613,0.00521655
5614,1.614,0.00521655
5615,1.615,0.00521655
5616,1.616,0.00521655
5617,1.617,0.00521655
5618,1.618,0.00521655
5619,1.619,0.00521655
5620,1.62,0.00521655
5621,1.621,0.00521655
5622,1.622,0.00521655
5623,1.623,0.00521655
5624,1.624,0.00521655
5625,1.625,0.00521655
5626,1.626,0.00521655
5627,1.627,0.00521655
5628,1.628,0.00521655
5629,1.629,0.00521655
5630,1.63,0.00521655
5631,1.631,0.00521655
5632,1.632,0.00521655
5633,1.633,0.00521655
5634,1.634,0.00521655
5635,1.635,0.00521655
5636,1.636,0.00521655
5637,1.637,0.00521655
5638,1.638,0.00521655
5639,1.639,0.00521655
5640,1.64,0.00521655
5641,1.641,0.00521655
5642,1.642,0.00521655
5643,1.643,0.00521655
5644,1.644,0.00521655
5645,1.645,0.00521655
5646,1.646,0.00521655
5647,1.647,0.00521655
5648,1.648,0.00521655
5649,1.649,0.00521655
5650,1.65,0.00521655
5651,1.651,0.00521655
5652,1.652,0.00521655
5653,1.653,0.00521655
5654,1.654,0.00521655
5655,1.655,0.00521655
5656,1.656,0.00521655
5657,1.657,0.00521655
5658,1.658,0.00521655
5659,1.659,0.00521655
5660,1.66,0.00521655
5661,1.661,0.00521655
5662,1.662,0.00521655
5663,1.663,0.00521655
5664,1.664,0.00521655
5665,1.665,0.00521655
5666,1.666,0.00521655
5667,1.667,0.00521655
5668,1.668,0.00521655
5669,1.669,0.00521655
5670,1.67,0.00521655
5671,1.671,0.00521655
5672,1.672,0.00521655
5673,1.673,0.00521655
5674,1.674,0.00521655
5675,1.675,0.00521655
5676,1.676,0.00521655
5677,1.677,0.00521655
5678,1.678,0.00521655
5679,1.679,0.00521655
5680,1.68,0.00521655
5681,1.681,0.00521655
5682,1.682,0.00521655
5683,1.683,0.00521655
5684,1.684,0.00521655
5685,1.685,0.00521655
5686,1.686,0.00521655
5687,1.687,0.00521655
5688,1.688,0.00521655
5689,1.689,0.00521655
5690,1.69,0.00521655
5691,1.691,0.00521655
5692,1.692,0.00521655
5693,1.693,0.00521655
5694,1.694,0.00521655
5695,1.695,0.00521655
5696,1.696,0.00521655
5697,1.697,0.00521655
5698,1.698,0.00521655
5699,1.699,0.00521655
5700,1.7,0.00521655
5701,1.701,0.00521655
5702,1.702,0.00521655
5703,1.703,0.00521655
5704,1.704,0.00521655
5705,1.705,0.00521655
5706,1.706,0.00521655
5707,1.707,0.00521655
5708,1.708,0.00521655
5709,1.709,0.00521655
5710,1.71,0.00521655
5711,1.711,0.00521655
5712,1.712,0.00521655
5713,1.713,0.00521655
5714,1.714,0.00521655
5715,1.715,0.00521655
5716,1.716,0.00521655
5717,1.717,0.00521655
5718,1.718,0.00521655
5719,1.719,0.00521655
5720,1.72,0.00521655
5721,1.721,0.00521655
5722,1.722,0.00521655
5723,1.723,0.00521655
5724,1.724,0.00521655
5725,1.725,0.00521655
5726,1.726,0.00521655
5727,1.727,0.00521655
5728,1.728,0.00521655
5729,1.729,0.00521655
5730,1.73,0.00521655
5731,1.731,0.00521655
5732,1.732,0.00521655
5733,1.733,0.00521655
5734,1.734,0.00521655
5735,1.735,0.00521655
5736,1.736,0.00521655
5737,1.737,0.00521655
5738,1.738,0.00521655
5739,1.739,0.00521655
5740,1.74,0.00521655
5741,1.741,0.00521655
5742,1.742,0.00521655
5743,1.743,0.00521655
5744,1.744,0.00521655
5745,1.745,0.00521655
5746,1.746,0.00521655
5747,1.747,0.00521655
5748,1.748,0.00521655
5749,1.749,0.00521655
5750,1.75,0.00521655
5751,1.751,0.00521655
5752,1.752,0.00521655
5753,1.753,0.00521655
5754,1.754,0.00521655
5755,1.755,0.00521655
5756,1.756,0.00521655
5757,1.757,0.00521655
5758,1.758,0.00521655
5759,1.759,0.00521655
5760,1.76,0.00521655
5761,1.761,0.00521655
5762,1.762,0.00521655
5763,1.763,0.00521655
5764,1.764,0.00521655
5765,1.765,0.00521655
5766,1.766,0.00521655
5767,1.767,0.00521655
5768,1.768,0.00521655
5769,1.769,0.00521655
5770,1.77,0.00521655
5771,1.771,0.00521655
5772,1.772,0.00521655
5773,1.773,0.00521655
5774,1.774,0.00521655
5775,1.775,0.00521655
5776,1.776,0.00521655
5777,1.777,0.00521655
5778,1.778,0.00521655
5779,1.779,0.00521655
5780,1.78,0.00521655
5781,1.781,0.00521655
5782,1.782,0.00521655
5783,1.783,0.00521655
5784,1.784,0.00521655
5785,1.785,0.00521655
5786,1.786,0.00521655
5787,1.787,0.00521655
5788,1.788,0.00521655
5789,1.789,0.00521655
5790,1.79,0.00521655
5791,1.791,0.00521655
5792,1.792,0.00521655
5793,1.793,0.00521655
5794,1.794,0.00521655
5795,1.795,0.00521655
5796,1.796,0.00521655
5797,1.797,0.00521655
5798,1.798,0.00521655
5799,1.799,0.00521655
5800,1.8,0.00521655
5801,1.801,0.00521655
5802,1.802,0.00521655
5803,1.803,0.00521655
5804,1.804,0.00521655
5805,1.805,0.00521655
5806,1.806,0.00521655
5807,1.807,0.00521655
5808,1.808,0.00521655
5809,1.809,0.00521655
5810,1.81,0.00521655
5811,1.811,0.00521655
5812,1.812,0.00521655
5813,1.813,0.00521655
5814,1.814,0.00521655
5815,1.815,0.00521655
5816,1.816,0.00521655
5817,1.817,0.00521655
5818,1.818,0.00521655
5819,1.819,0.00521655
5820,1.82,0.00521655
5821,1.821,0.00521655
5822,1.822,0.00521655
5823,1.823,0.00521655
5824,1.824,0.00521655
5825,1.825,0.00521655
5826,1.826,0.00521655
5827,1.827,0.00521655
5828,1.828,0.00521655
5829,1.829,0.00521655
5830,1.83,0.00521655
5831,1.831,0.00521655
5832,1.832,0.00521655
5833,1.833,0.00521655
5834,1.834,0.00521655
5835,1.835,0.00521655
5836,1.836,0.00521655
5837,1.837,0.00521655
5838,1.838,0.00521655
5839,1.839,0.00521655
5840,1.84,0.00521655
5841,1.841,0.00521655
5842,1.842,0.00521655
5843,1.843,0.00521655
5844,1.844,0.00521655
5845,1.845,0.00521655
5846,1.846,0.00521655
5847,1.847,0.00521655
5848,1.848,0.00521655
5849,1.849,0.00521655
5850,1.85,0.00521655
5851,1.851,0.00521655
5852,1.852,0.00521655
5853,1.853,0.00521655
5854,1.854,0.00521655
5855,1.855,0.00521655
5856,1.856,0.00521655
5857,1.857,0.00521655
5858,1.858,0.00521655
5859,1.859,0.00521655
5860,1.86,0.00521655
5861,1.861,0.00521655
5862,1.862,0.00521655
5863,1.863,0.00521655
5864,1.864,0.00521655
5865,1.865,0.00521655
5866,1.866,0.00521655
5867,1.867,0.00521655
5868,1.868,0.00521655
5869,1.869,0.00521655
5870,1.87,0.00521655
5871,1.871,0.00521655
5872,1.872,0.00521655
5873,1.873,0.00521655
5874,1.874,0.00521655
5875,1.875,0.00521655
5876,1.876,0.00521655
5877,1.877,0.00521655
5878,1.878,0.00521655
5879,1.879,0.00521655
5880,1.88,0.00521655
5881,1.881,0.00521655
5882,1.882,0.00521655
5883,1.883,0.00521655
5884,1.884,0.00521655
5885,1.885,0.00521655
5886,1.886,0.00521655
5887,1.887,0.00521655
5888,1.888,0.00521655
5889,1.889,0.00521655
5890,1.89,0.00521655
5891,1.891,0.00521655
5892,1.892,0.00521655
5893,1.893,0.00521655
5894,1.894,0.00521655
5895,1.895,0.00521655
5896,1.896,0.00521655
5897,1.897,0.00521655
5898,1.898,0.00521655
5899,1.899,0.00521655
5900,1.9,0.00521655
5901,1.901,0.00521655
5902,1.902,0.00521655
5903,1.903,0.00521655
5904,1.904,0.00521655
5905,1.905,0.00521655
5906,1.906,0.00521655
5907,1.907,0.00521655
5908,1.908,0.00521655
5909,1.909,0.00521655
5910,1.91,0.00521655
5911,1.911,0.00521655
5912,1.912,0.00521655
5913,1.913,0.00521655
5914,1.914,0.00521655
5915,1.915,0.00521655
5916,1.916,0.00521655
5917,1.917,0.00521655
5918,1.918,0.00521655
5919,1.919,0.00521655
5920,1.92,0.00521655
5921,1.921,0.00521655
5922,1.922,0.00521655
5923,1.923,0.00521655
5924,1.924,0.00521655
5925,1.925,0.00521655
5926,1.926,0.00521655
5927,1.927,0.00521655
5928,1.928,0.00521655
5929,1.929,0.00521655
5930,1.93,0.00521655
5931,1.931,0.00521655
5932,1.932,0.00521655
5933,1.933,0.00521655
5934,1.934,0.00521655
5935,1.935,0.00521655
5936,1.936,0.00521655
5937,1.937,0.00521655
5938,1.938,0.00521655
5939,1.939,0.00521655
5940,1.94,0.00521655
5941,1.941,0.00521655
5942,1.942,0.00521655
5943,1.943,0.00521655
5944,1.944,0.00521655
5945,1.945,0.00521655
5946,1.946,0.00521655
5947,1.947,0.00521655
5948,1.948,0.00521655
5949,1.949,0.00521655
5950,1.95,0.00521655
5951,1.951,0.00521655
5952,1.952,0.00521655
5953,1.953,0.00521655
5954,1.954,0.00521655
5955,1.955,0.00521655
5956,1.956,0.00521655
5957,1.957,0.00521655
5958,1.958,0.00521655
5959,1.959,0.00521655
5960,1.96,0.00521655
5961,1.961,0.00521655
5962,1.962,0.00521655
5963,1.963,0.00521655
5964,1.964,0.00521655
5965,1.965,0.00521655
5966,1.966,0.00521655
5967,1.967,0.00521655
5968,1.968,0.00521655
5969,1.969,0.00521655
5970,1.97,0.00521655
5971,1.971,0.00521655
5972,1.972,0.00521655
5973,1.973,0.00521655
5974,1.974,0.00521655
5975,1.975,0.00521655
5976,1.976,0.00521655
5977,1.977,0.00521655
5978,1.978,0.00521655
5979,1.979,0.00521655
5980,1.98,0.00521655
5981,1.981,0.00521655
5982,1.982,0.00521655
5983,1.983,0.00521655
5984,1.984,0.00521655
5985,1.985,0.00521655
5986,1.986,0.00521655
5987,1.987,0.00521655
5988,1.988,0.00521655
5989,1.989,0.00521655
5990,1.99,0.00521655
5991,1.991,0.00521655
5992,1.992,0.00521655
5993,1.993,0.00521655
5994,1.994,0.00521655
5995,1.995,0.00521655
5996,1.996,0.00521655
5997,1.997,0.00521655
5998,1.998,0.00521655
5999,1.999,0.00521655
6000,2,0.00521655
6001,2.001,0.00521655
6002,2.002,0.00521655
6003,2.003,0.00521655
6004,2.004,0.00521655
6005,2.005,0.00521655
6006,2.006,0.00521655
6007,2.007,0.00521655
6008,2.008,0.00521655
6009,2.009,0.00521655
6010,2.01,0.00521655
6011,2.011,0.00521655
6012,2.012,0.00521655
6013,2.013,0.00521655
6014,2.014,0.00521655
6015,2.015,0.00521655
6016,2.016,0.00521655
6017,2.017,0.00521655
6018,2.018,0.00521655
6019,2.019,0.00521655
6020,2.02,0.00521655
6021,2.021,0.00521655
6022,2.022,0.00521655
6023,2.023,0.00521655
6024,2.024,0.00521655
6025,2.025,0.00521655
6026,2.026,0.00521655
6027,2.027,0.00521655
6028,2.028,0.00521655
6029,2.029,0.00521655
6030,2.03,0.00521655
6031,2.031,0.00521655
6032,2.032,0.00521655
6033,2.033,0.00521655
6034,2.034,0.00521655
6035,2.035,0.00521655
6036,2.036,0.00521655
6037,2.037,0.00521655
6038,2.038,0.00521655
6039,2.039,0.00521655
6040,2.04,0.00521655
6041,2.041,0.00521655
6042,2.042,0.00521655
6043,2.043,0.00521655
6044,2.044,0.00521655
6045,2.045,0.00521655
6046,2.046,0.00521655
6047,2.047,0.00521655
6048,2.048,0.00521655
6049,2.049,0.00521655
6050,2.05,0.00521655
6051,2.051,0.00521655
6052,2.052,0.00521655
6053,2.053,0.00521655
6054,2.054,0.00521655
6055,2.055,0.00521655
6056,2.056,0.00521655
6057,2.057,0.00521655
6058,2.058,0.00521655
6059,2.059,0.00521655
6060,2.06,0.00521655
6061,2.061,0.00521655
6062,2.062,0.00521655
6063,2.063,0.00521655
6064,2.064,0.00521655
6065,2.065,0.00521655
6066,2.066,0.00521655
6067,2.067,0.00521655
6068,2.068,0.00521655
6069,2.069,0.00521655
6070,2.07,0.00521655
6071,2.071,0.00521655
6072,2.072,0.00521655
6073,2.073,0.00521655
6074,2.074,0.00521655
6075,2.075,0.00521655
6076,2.076,0.00521655
6077,2.077,0.00521655
6078,2.078,0.00521655
6079,2.079,0.00521655
6080,2.08,0.00521655
6081,2.081,0.00521655
6082,2.082,0.00521655
6083,2.083,0.00521655
6084,2.084,0.00521655
6085,2.085,0.00521655
6086,2.086,0.00521655
6087,2.087,0.00521655
6088,2.088,0.00521655
6089,2.089,0.00521655
6090,2.09,0.00521655
6091,2.091,0.00521655
6092,2.092,0.00521655
6093,2.093,0.00521655
6094,2.094,0.00521655
6095,2.095,0.00521655
6096,2.096,0.00521655
6097,2.097,0.00521655
6098,2.098,0.00521655
6099,2.099,0.00521655
6100,2.1,0.00521655
6101,2.101,0.00521655
6102,2.102,0.00521655
6103,2.103,0.00521655
6104,2.104,0.00521655
6105,2.105,0.00521655
6106,2.106,0.00521655
6107,2.107,0.00521655
6108,2.108,0.00521655
6109,2.109,0.00521655
6110,2.11,0.00521655
6111,2.111,0.00521655
6112,2.112,0.00521655
6113,2.113,0.00521655
6114,2.114,0.00521655
6115,2.115,0.00521655
6116,2.116,0.00521655
6117,2.117,0.00521655
6118,2.118,0.00521655
6119,2.119,0.00521655
6120,2.12,0.00521655
6121,2.121,0.00521655
6122,2.122,0.00521655
6123,2.123,0.00521655
6124,2.124,0.00521655
6125,2.125,0.00521655
6126,2.126,0.00521655
6127,2.127,0.00521655
6128,2.128,0.00521655
6129,2.129,0.00521655
6130,2.13,0.00521655
6131,2.131,0.00521655
6132,2.132,0.00521655
6133,2.133,0.00521655
6134,2.134,0.00521655
6135,2.135,0.00521655
6136,2.136,0.00521655
6137,2.137,0.00521655
6138,2.138,0.00521655
6139,2.139,0.00521655
6140,2.14,0.00521655
6141,2.141,0.00521655
6142,2.142,0.00521655
6143,2.143,0.00521655
6144,2.144,0.00521655
6145,2.145,0.00521655
6146,2.146,0.00521655
6147,2.147,0.00521655
6148,2.148,0.00521655
6149,2.149,0.00521655
6150,2.15,0.00521655
6151,2.151,0.00521655
6152,2.152,0.00521655
6153,2.153,0.00521655
6154,2.154,0.00521655
6155,2.155,0.00521655
6156,2.156,0.00521655
6157,2.157,0.00521655
6158,2.158,0.00521655
6159,2.159,0.00521655
6160,2.16,0.00521655
6161,2.161,0.00521655
6162,2.162,0.00521655
6163,2.163,0.00521655
6164,2.164,0.00521655
6165,2.165,0.00521655
6166,2.166,0.00521655
6167,2.167,0.00521655
6168,2.168,0.00521655
6169,2.169,0.00521655
6170,2.17,0.00521655
6171,2.171,0.00521655
6172,2.172,0.00521655
6173,2.173,0.00521655
6174,2.174,0.00521655
6175,2.175,0.00521655
6176,2.176,0.00521655
6177,2.177,0.00521655
6178,2.178,0.00521655
6179,2.179,0.00521655
6180,2.18,0.00521655
6181,2.181,0.00521655
6182,2.182,0.00521655
6183,2.183,0.00521655
6184,2.184,0.00521655
6185,2.185,0.00521655
6186,2.186,0.00521655
6187,2.187,0.00521655
6188,2.188,0.00521655
6189,2.189,0.00521655
6190,2.19,0.00521655
6191,2.191,0.00521655
6192,2.192,0.00521655
6193,2.193,0.00521655
6194,2.194,0.00521655
6195,2.195,0.00521655
6196,2.196,0.00521655
6197,2.197,0.00521655
6198,2.198,0.00521655
6199,2.199,0.00521655
6200,2.2,0.00521655
6201,2.201,0.00521655
6202,2.202,0.00521655
6203,2.203,0.00521655
6204,2.204,0.00521655
6205,2.205,0.00521655
6206,2.206,0.00521655
6207,2.207,0.00521655
6208,2.208,0.00521655
6209,2.209,0.00521655
6210,2.21,0.00521655
6211,2.211,0.00521655
6212,2.212,0.00521655
6213,2.213,0.00521655
6214,2.214,0.00521655
6215,2.215,0.00521655
6216,2.216,0.00521655
6217,2.217,0.00521655
6218,2.218,0.00521655
6219,2.219,0.00521655
6220,2.22,0.00521655
6221,2.221,0.00521655
6222,2.222,0.00521655
6223,2.223,0.00521655
6224,2.224,0.00521655
6225,2.225,0.00521655
6226,2.226,0.00521655
6227,2.227,0.00521655
6228,2.228,0.00521655
6229,2.229,0.00521655
6230,2.23,0.00521655
6231,2.231,0.00521655
6232,2.232,0.00521655
6233,2.233,0.00521655
6234,2.234,0.00521655
6235,2.235,0.00521655
6236,2.236,0.00521655
6237,2.237,0.00521655
6238,2.238,0.00521655
6239,2.239,0.00521655
6240,2.24,0.00521655
6241,2.241,0.00521655
6242,2.242,0.00521655
6243,2.243,0.00521655
6244,2.244,0.00521655
6245,2.245,0.00521655
6246,2.246,0.00521655
6247,2.247,0.00521655
6248,2.248,0.00521655
6249,2.249,0.00521655
6250,2.25,0.00521655
6251,2.251,0.00521655
6252,2.252,0.00521655
6253,2.253,0.00521655
6254,2.254,0.00521655
6255,2.255,0.00521655
6256,2.256,0.00521655
6257,2.257,0.00521655
6258,2.258,0.00521655
6259,2.259,0.00521655
6260,2.26,0.00521655
6261,2.261,0.00521655
6262,2.262,0.00521655
6263,2.263,0.00521655
6264,2.264,0.00521655
6265,2.265,0.00521655
6266,2.266,0.00521655
6267,2.267,0.00521655
6268,2.268,0.00521655
6269,2.269,0.00521655
6270,2.27,0.00521655
6271,2.271,0.00521655
6272,2.272,0.00521655
6273,2.273,0.00521655
6274,2.274,0.00521655
6275,2.275,0.00521655
6276,2.276,0.00521655
6277,2.277,0.00521655
6278,2.278,0.00521655
6279,2.279,0.00521655
6280,2.28,0.00521655
6281,2.281,0.00521655
6282,2.282,0.00521655
6283,2.283,0.00521655
6284,2.284,0.00521655
6285,2.285,0.00521655
6286,2.286,0.00521655
6287,2.287,0.00521655
6288,2.288,0.00521655
6289,2.289,0.00521655
6290,2.29,0.00521655
6291,2.291,0.00521655
6292,2.292,0.00521655
6293,2.293,0.00521655
6294,2.294,0.00521655
6295,2.295,0.00521655
6296,2.296,0.00521655
6297,2.297,0.00521655
6298,2.298,0.00521655
6299,2.299,0.00521655
6300,2.3,0.00521655
6301,2.301,0.00521655
6302,2.302,0.00521655
6303,2.303,0.00521655
6304,2.304,0.00521655
6305,2.305,0.00521655
6306,2.306,0.00521655
6307,2.307,0.00521655
6308,2.308,0.00521655
6309,2.309,0.00521655
6310,2.31,0.00521655
6311,2.311,0.00521655
6312,2.312,0.00521655
6313,2.313,0.00521655
6314,2.314,0.00521655
6315,2.315,0.00521655
6316,2.316,0.00521655
6317,2.317,0.00521655
6318,2.318,0.00521655
6319,2.319,0.00521655
6320,2.32,0.00521655
6321,2.321,0.00521655
6322,2.322,0.00521655
6323,2.323,0.00521655
6324,2.324,0.00521655
6325,2.325,0.00521655
6326,2.326,0.00521655
6327,2.327,0.00521655
6328,2.328,0.00521655
6329,2.329,0.00521655
6330,2.33,0.00521655
6331,2.331,0.00521655
6332,2.332,0.00521655
6333,2.333,0.00521655
6334,2.334,0.00521655
6335,2.335,0.00521655
6336,2.336,0.00521655
6337,2.337,0.00521655
6338,2.338,0.00521655
6339,2.339,0.00521655
6340,2.34,0.00521655
6341,2.341,0.00521655
6342,2.342,0.00521655
6343,2.343,0.00521655
6344,2.344,0.00521655
6345,2.345,0.00521655
6346,2.346,0.00521655
6347,2.347,0.00521655
6348,2.348,0.00521655
6349,2.349,0.00521655
6350,2.35,0.00521655
6351,2.351,0.00521655
6352,2.352,0.00521655
6353,2.353,0.00521655
6354,2.354,0.00521655
6355,2.355,0.00521655
6356,2.356,0.00521655
6357,2.357,0.00521655
6358,2.358,0.00521655
6359,2.359,0.00521655
6360,2.36,0.00521655
6361,2.361,0.00521655
6362,2.362,0.00521655
6363,2.363,0.00521655
6364,2.364,0.00521655
6365,2.365,0.00521655
6366,2.366,0.00521655
6367,2.367,0.00521655
6368,2.368,0.00521655
6369,2.369,0.00521655
6370,2.37,0.00521655
6371,2.371,0.00521655
6372,2.372,0.00521655
6373,2.373,0.00521655
6374,2.374,0.00521655
6375,2.375,0.00521655
6376,2.376,0.00521655
6377,2.377,0.00521655
6378,2.378,0.00521655
6379,2.379,0.00521655
6380,2.38,0.00521655
6381,2.381,0.00521655
6382,2.382,0.00521655
6383,2.383,0.00521655
6384,2.384,0.00521655
6385,2.385,0.00521655
6386,2.386,0.00521655
6387,2.387,0.00521655
6388,2.388,0.00521655
6389,2.389,0.00521655
6390,2.39,0.00521655
6391,2.391,0.00521655
6392,2.392,0.00521655
6393,2.393,0.00521655
6394,2.394,0.00521655
6395,2.395,0.00521655
6396,2.396,0.00521655
6397,2.397,0.00521655
6398,2.398,0.00521655
6399,2.399,0.00521655
6400,2.4,0.00521655
6401,2.401,0.00521655
6402,2.402,0.00521655
6403,2.403,0.00521655
6404,2.404,0.00521655
6405,2.405,0.00521655
6406,2.406,0.00521655
6407,2.407,0.00521655
6408,2.408,0.00521655
6409,2.409,0.00521655
6410,2.41,0.00521655
6411,2.411,0.00521655
6412,2.412,0.00521655
6413,2.413,0.00521655
6414,2.414,0.00521655
6415,2.415,0.00521655
6416,2.416,0.00521655
6417,2.417,0.00521655
6418,2.418,0.00521655
6419,2.419,0.00521655
6420,2.42,0.00521655
6421,2.421,0.00521655
6422,2.422,0.00521655
6423,2.423,0.00521655
6424,2.424,0.00521655
6425,2.425,0.00521655
6426,2.426,0.00521655
6427,2.427,0.00521655
6428,2.428,0.00521655
6429,2.429,0.00521655
6430,2.43,0.00521655
6431,2.431,0.00521655
6432,2.432,0.00521655
6433,2.433,0.00521655
6434,2.434,0.00521655
6435,2.435,0.00521655
6436,2.436,0.00521655
6437,2.437,0.00521655
6438,2.438,0.00521655
6439,2.439,0.00521655
6440,2.44,0.00521655
6441,2.441,0.00521655
6442,2.442,0.00521655
6443,2.443,0.00521655
6444,2.444,0.00521655
6445,2.445,0.00521655
6446,2.446,0.00521655
6447,2.447,0.00521655
6448,2.448,0.00521655
6449,2.449,0.00521655
6450,2.45,0.00521655
6451,2.451,0.0295605
6452,2.452,0.123458
6453,2.453,0.18084
6454,2.454,0.179102
6455,2.455,0.179102
6456,2.456,0.179102
6457,2.457,0.179102
6458,2.458,0.179102
6459,2.459,0.179102
6460,2.46,0.179102
6461,2.461,0.179102
6462,2.462,0.179102
6463,2.463,0.179102
6464,2.464,0.179102
6465,2.465,0.179102
6466,2.466,0.179102
6467,2.467,0.179102
6468,2.468,0.179102
6469,2.469,0.179102
6470,2.47,0.179102
6471,2.471,0.179102
6472,2.472,0.179102
6473,2.473,0.179102
6474,2.474,0.179102
6475,2.475,0.179102
6476,2.476,0.179102
6477,2.477,0.179102
6478,2.478,0.179102
6479,2.479,0.179102
6480,2.48,0.179102
6481,2.481,0.179102
6482,2.482,0.179102
6483,2.483,0.179102
6484,2.484,0.179102
6485,2.485,0.179102
6486,2.486,0.179102
6487,2.487,0.179102
6488,2.488,0.179102
6489,2.489,0.179102
6490,2.49,0.179102
6491,2.491,0.179102
6492,2.492,0.179102
6493,2.493,0.179102
6494,2.494,0.179102
6495,2.495,0.179102
6496,2.496,0.179102
6497,2.497,0.179102
6498,2.498,0.179102
6499,2.499,0.179102
6500,2.5,0.179102
6501,2.501,0.179102
6502,2.502,0.179102
6503,2.503,0.179102
6504,2.504,0.179102
6505,2.505,0.179102
6506,2.506,0.179102
6507,2.507,0.179102
6508,2.508,0.179102
6509,2.509,0.179102
6510,2.51,0.179102
6511,2.511,0.179102
6512,2.512,0.179102
6513,2.513,0.179102
6514,2.514,0.179102
6515,2.515,0.179102
6516,2.516,0.179102
6517,2.517,0.179102
6518,2.518,0.179102
6519,2.519,0.179102
6520,2.52,0.179102
6521,2.521,0.179102
6522,2.522,0.179102
6523,2.523,0.179102
6524,2.524,0.179102
6525,2.525,0.179102
6526,2.526,0.179102
6527,2.527,0.179102
6528,2.528,0.179102
6529,2.529,0.179102
6530,2.53,0.179102
6531,2.531,0.179102
6532,2.532,0.179102
6533,2.533,0.179102
6534,2.534,0.179102
6535,2.535,0.179102
6536,2.536,0.179102
6537,2.537,0.179102
6538,2.538,0.179102
6539,2.539,0.179102
6540,2.54,0.179102
6541,2.541,0.179102
6542,2.542,0.179102
6543,2.543,0.179102
6544,2.544,0.179102
6545,2.545,0.179102
6546,2.546,0.179102
6547,2.547,0.179102
6548,2.548,0.179102
6549,2.549,0.179102
6550,2.55,0.179102
6551,2.551,0.179102
6552,2.552,0.179102
6553,2.553,0.179102
6554,2.554,0.179102
6555,2.555,0.179102
6556,2.556,0.179102
6557,2.557,0.179102
6558,2.558,0.179102
6559,2.559,0.179102
6560,2.56,0.179102
6561,2.561,0.179102
6562,2.562,0.179102
6563,2.563,0.179102
6564,2.564,0.179102
6565,2.565,0.179102
6566,2.566,0.179102
6567,2.567,0.179102
6568,2.568,0.179102
6569,2.569,0.179102
6570,2.57,0.179102
6571,2.571,0.179102
6572,2.572,0.179102
6573,2.573,0.179102
6574,2.574,0.179102
6575,2.575,0.179102
6576,2.576,0.179102
6577,2.577,0.179102
6578,2.578,0.179102
6579,2.579,0.179102
6580,2.58,0.179102
6581,2.581,0.179102
6582,2.582,0.179102
6583,2.583,0.179102
6584,2.584,0.173885
6585,2.585,0.16693
6586,2.586,-0.00521655
6587,2.587,0.0069554
6588,2.588,0.00521655
6589,2.589,0.00521655
6590,2.59,0.00521655
6591,2.591,0.00521655
6592,2.592,0.00521655
6593,2.593,0.00521655
6594,2.594,0.00521655
6595,2.595,0.00521655
6596,2.596,0.00521655
6597,2.597,0.00521655
6598,2.598,0.00521655
6599,2.599,0.00521655
6600,2.6,0.00521655
6601,2.601,0.00521655
6602,2.602,0.00521655
6603,2.603,0.00521655
6604,2.604,0.00521655
6605,2.605,0.00521655
6606,2.606,0.00521655
6607,2.607,0.00521655
6608,2.608,0.00521655
6609,2.609,0.00521655
6610,2.61,0.00521655
6611,2.611,0.00521655
6612,2.612,0.00521655
6613,2.613,0.00521655
6614,2.614,0.00521655
6615,2.615,0.00521655
6616,2.616,0.00521655
6617,2.617,0.00521655
6618,2.618,0.00521655
6619,2.619,0.00521655
6620,2.62,0.00521655
6621,2.621,0.00521655
6622,2.622,0.00521655
6623,2.623,0.00521655
6624,2.624,0.00521655
6625,2.625,0.00521655
6626,2.626,0.00521655
6627,2.627,0.00521655
6628,2.628,0.00521655
6629,2.629,0.00521655
6630,2.63,0.00521655
6631,2.631,0.00521655
6632,2.632,0.00521655
6633,2.633,0.00521655
6634,2.634,0.00521655
6635,2.635,0.00521655
6636,2.636,0.00521655
6637,2.637,0.00521655
6638,2.638,0.00521655
6639,2.639,0.00521655
6640,2.64,0.00521655
6641,2.641,0.00521655
6642,2.642,0.00521655
6643,2.643,0.00521655
6644,2.644,0.00521655
6645,2.645,0.00521655
6646,2.646,0.00521655
6647,2.647,0.00521655
6648,2.648,0.00521655
6649,2.649,0.00521655
6650,2.65,0.00521655
6651,2.651,0.00521655
6652,2.652,0.00521655
6653,2.653,0.00521655
6654,2.654,0.00521655
6655,2.655,0.00521655
6656,2.656,0.00521655
6657,2.657,0.00521655
6658,2.658,0.00521655
6659,2.659,0.00521655
6660,2.66,0.00521655
6661,2.661,0.00521655
6662,2.662,0.00521655
6663,2.663,0.00521655
6664,2.664,0.00521655
6665,2.665,0.00521655
6666,2.666,0.00521655
6667,2.667,0.00521655
6668,2.668,0.00521655
6669,2.669,0.00521655
6670,2.67,0.00521655
6671,2.671,0.00521655
6672,2.672,0.00521655
6673,2.673,0.00521655
6674,2.674,0.00521655
6675,2.675,0.00521655
6676,2.676,0.00521655
6677,2.677,0.00521655
6678,2.678,0.00521655
6679,2.679,0.00521655
6680,2.68,0.00521655
6681,2.681,0.00521655
6682,2.682,0.00521655
6683,2.683,0.00521655
6684,2.684,0.00521655
6685,2.685,0.00521655
6686,2.686,0.00521655
6687,2.687,0.00521655
6688,2.688,0.00521655
6689,2.689,0.00521655
6690,2.69,0.00521655
6691,2.691,0.00521655
6692,2.692,0.00521655
6693,2.693,0.00521655
6694,2.694,0.00521655
6695,2.695,0.00521655
6696,2.696,0.00521655
6697,2.697,0.00521655
6698,2.698,0.00521655
6699,2.699,0.00521655
6700,2.7,0.00521655
6701,2.701,0.00521655
6702,2.702,0.00521655
6703,2.703,0.00521655
6704,2.704,0.00521655
6705,2.705,0.00521655
6706,2.706,0.00521655
6707,2.707,0.00521655
6708,2.708,0.00521655
6709,2.709,0.00521655
6710,2.71,0.00521655
6711,2.711,0.00521655
6712,2.712,0.00521655
6713,2.713,0.00521655
6714,2.714,0.00521655
6715,2.715,0.00521655
6716,2.716,0.00521655
6717,2.717,0.00521655
6718,2.718,0.00521655
6719,2.719,0.00521655
6720,2.72,0.00521655
6721,2.721,0.00521655
6722,2.722,0.00521655
6723,2.723,0.00521655
6724,2.724,0.00521655
6725,2.725,0.00521655
6726,2.726,0.00521655
6727,2.727,0.00521655
6728,2.728,0.00521655
6729,2.729,0.00521655
6730,2.73,0.00521655
6731,2.731,0.00521655
6732,2.732,0.00521655
6733,2.733,0.00521655
6734,2.734,0.00521655
6735,2.735,0.00521655
6736,2.736,0.00521655
6737,2.737,0.00521655
6738,2.738,0.00521655
6739,2.739,0.00521655
6740,2.74,0.00521655
6741,2.741,0.00521655
6742,2.742,0.00521655
6743,2.743,0.00521655
6744,2.744,0.00521655
6745,2.745,0.00521655
6746,2.746,0.00521655
6747,2.747,0.00521655
6748,2.748,0.00521655
6749,2.749,0.00521655
6750,2.75,0.00521655
6751,2.751,0.00521655
6752,2.752,0.00521655
6753,2.753,0.00521655
6754,2.754,0.00521655
6755,2.755,0.00521655
6756,2.756,0.00521655
6757,2.757,0.00521655
6758,2.758,0.00521655
6759,2.759,0.00521655
6760,2.76,0.00521655
6761,2.761,0.00521655
6762,2.762,0.00521655
6763,2.763,0.00521655
6764,2.764,0.00521655
6765,2.765,0.00521655
6766,2.766,0.00521655
6767,2.767,0.00521655
6768,2.768,0.00521655
6769,2.769,0.00521655
6770,2.77,0.00521655
6771,2.771,0.00521655
6772,2.772,0.00521655
6773,2.773,0.00521655
6774,2.774,0.00521655
6775,2.775,0.00521655
6776,2.776,0.00521655
6777,2.777,0.00521655
6778,2.778,0.00521655
6779,2.779,0.00521655
6780,2.78,0.00521655
6781,2.781,0.00521655
6782,2.782,0.00521655
6783,2.783,0.00521655
6784,2.784,0.00521655
6785,2.785,0.00521655
6786,2.786,0.00521655
6787,2.787,0.00521655
6788,2.788,0.00521655
6789,2.789,0.00521655
6790,2.79,0.00521655
6791,2.791,0.00521655
6792,2.792,0.00521655
6793,2.793,0.00521655
6794,2.794,0.00521655
6795,2.795,0.00521655
6796,2.796,0.00521655
6797,2.797,0.00521655
6798,2.798,0.00521655
6799,2.799,0.00521655
6800,2.8,0.00521655
6801,2.801,0.00521655
6802,2.802,0.00521655
6803,2.803,0.00521655
6804,2.804,0.00521655
6805,2.805,0.00521655
6806,2.806,0.00521655
6807,2.807,0.00521655
6808,2.808,0.00521655
6809,2.809,0.00521655
6810,2.81,0.00521655
6811,2.811,0.00521655
6812,2.812,0.00521655
6813,2.813,0.00521655
6814,2.814,0.00521655
6815,2.815,0.00521655
6816,2.816,0.00521655
6817,2.817,0.00521655
6818,2.818,0.00521655
6819,2.819,0.00521655
6820,2.82,0.00521655
6821,2.821,0.00521655
6822,2.822,0.00521655
6823,2.823,0.00521655
6824,2.824,0.00521655
6825,2.825,0.00521655
6826,2.826,0.00521655
6827,2.827,0.00521655
6828,2.828,0.00521655
6829,2.829,0.00521655
6830,2.83,0.00521655
6831,2.831,0.00521655
6832,2.832,0.00521655
6833,2.833,0.00521655
6834,2.834,0.00521655
6835,2.835,0.00521655
6836,2.836,0.00521655
6837,2.837,0.00521655
6838,2.838,0.00521655
6839,2.839,0.00521655
6840,2.84,0.00521655
6841,2.841,0.00521655
6842,2.842,0.00521655
6843,2.843,0.00521655
6844,2.844,0.00521655
6845,2.845,0.00521655
6846,2.846,0.00521655
6847,2.847,0.00521655
6848,2.848,0.00521655
6849,2.849,0.00521655
6850,2.85,0.00521655
6851,2.851,0.00521655
6852,2.852,0.00521655
6853,2.853,0.00521655
6854,2.854,0.00521655
6855,2.855,0.00521655
6856,2.856,0.00521655
6857,2.857,0.00521655
6858,2.858,0.00521655
6859,2.859,0.00521655
6860,2.86,0.00521655
6861,2.861,0.00521655
6862,2.862,0.00521655
6863,2.863,0.00521655
6864,2.864,0.00521655
6865,2.865,0.00521655
6866,2.866,0.00521655
6867,2.867,0.00521655
6868,2.868,0.00521655
6869,2.869,0.00521655
6870,2.87,0.00521655
6871,2.871,0.00521655
6872,2.872,0.00521655
6873,2.873,0.00521655
6874,2.874,0.00521655
6875,2.875,0.00521655
6876,2.876,0.00521655
6877,2.877,0.00521655
6878,2.878,0.00521655
6879,2.879,0.00521655
6880,2.88,0.00521655
6881,2.881,0.00521655
6882,2.882,0.00521655
6883,2.883,0.00521655
6884,2.884,0.00521655
6885,2.885,0.00521655
6886,2.886,0.00521655
6887,2.887,0.00521655
6888,2.888,0.00521655
6889,2.889,0.00521655
6890,2.89,0.00521655
6891,2.891,0.00521655
6892,2.892,0.00521655
6893,2.893,0.00521655
6894,2.894,0.00521655
6895,2.895,0.00521655
6896,2.896,0.00521655
6897,2.897,0.00521655
6898,2.898,0.00521655
6899,2.899,0.00521655
6900,2.9,0.00521655
6901,2.901,0.00521655
6902,2.902,0.00521655
6903,2.903,0.00521655
6904,2.904,0.00521655
6905,2.905,0.00521655
6906,2.906,0.00521655
6907,2.907,0.00521655
6908,2.908,0.00521655
6909,2.909,0.00521655
6910,2.91,0.00521655
6911,2.911,0.00521655
6912,2.912,0.00521655
6913,2.913,0.00521655
6914,2.914,0.00521655
6915,2.915,0.00521655
6916,2.916,0.00521655
6917,2.917,0.00521655
6918,2.918,0.00521655
6919,2.919,0.00521655
6920,2.92,0.00521655
6921,2.921,0.00521655
6922,2.922,0.00521655
6923,2.923,0.00521655
6924,2.924,0.00521655
6925,2.925,0.00521655
6926,2.926,0.00521655
6927,2.927,0.00521655
6928,2.928,0.00521655
6929,2.929,0.00521655
6930,2.93,0.00521655
6931,2.931,0.00521655
6932,2.932,0.00521655
6933,2.933,0.00521655
6934,2.934,0.00521655
6935,2.935,0.00521655
6936,2.936,0.00521655
6937,2.937,0.00521655
6938,2.938,0.00521655
6939,2.939,0.00521655
6940,2.94,0.00521655
6941,2.941,0.00521655
6942,2.942,0.00521655
6943,2.943,0.00521655
6944,2.944,0.00521655
6945,2.945,0.00521655
6946,2.946,0.00521655
6947,2.947,0.00521655
6948,2.948,0.00521655
6949,2.949,0.00521655
6950,2.95,0.00521655
6951,2.951,0.00521655
6952,2.952,0.00521655
6953,2.953,0.00521655
6954,2.954,0.00521655
6955,2.955,0.00521655
6956,2.956,0.00521655
6957,2.957,0.00521655
6958,2.958,0.00521655
6959,2.959,0.00521655
6960,2.96,0.00521655
6961,2.961,0.00521655
6962,2.962,0.00521655
6963,2.963,0.00521655
6964,2.964,0.00521655
6965,2.965,0.00521655
6966,2.966,0.00521655
6967,2.967,0.00521655
6968,2.968,0.00521655
6969,2.969,0.00521655
6970,2.97,0.00521655
6971,2.971,0.00521655
6972,2.972,0.00521655
6973,2.973,0.00521655
6974,2.974,0.00521655
6975,2.975,0.00521655
6976,2.976,0.00521655
6977,2.977,0.00521655
6978,2.978,0.00521655
6979,2.979,0.00521655
6980,2.98,0.00521655
6981,2.981,0.00521655
6982,2.982,0.00521655
6983,2.983,0.00521655
6984,2.984,0.00521655
6985,2.985,0.00521655
6986,2.986,0.00521655
6987,2.987,0.00521655
6988,2.988,0.0034777
6989,2.989,0.00521655
6990,2.99,0.00521655
6991,2.991,0.00521655
6992,2.992,0.00521655
6993,2.993,0.00521655
6994,2.994,0.00521655
6995,2.995,0.00521655
6996,2.996,0.00521655
6997,2.997,0.00521655
6998,2.998,0.00521655
6999,2.999,0.00521655
7000,3,0.00521655
7001,3.001,0.00521655
7002,3.002,0.00521655
7003,3.003,0.00521655
7004,3.004,0.00521655
7005,3.005,0.00521655
7006,3.006,0.00521655
7007,3.007,0.00521655
7008,3.008,0.00521655
7009,3.009,0.00521655
7010,3.01,0.00521655
7011,3.011,0.00521655
7012,3.012,0.00521655
7013,3.013,0.00521655
7014,3.014,0.00521655
7015,3.015,0.00521655
7016,3.016,0.00521655
7017,3.017,0.00521655
7018,3.018,0.00521655
7019,3.019,0.00521655
7020,3.02,0.00521655
7021,3.021,0.00521655
7022,3.022,0.00521655
7023,3.023,0.00521655
7024,3.024,0.00521655
7025,3.025,0.00521655
7026,3.026,0.00521655
7027,3.027,0.00521655
7028,3.028,0.00521655
7029,3.029,0.00521655
7030,3.03,0.00521655
7031,3.031,0.00521655
7032,3.032,0.00521655
7033,3.033,0.00521655
7034,3.034,0.00521655
7035,3.035,0.00521655
7036,3.036,0.00521655
7037,3.037,0.00521655
7038,3.038,0.00521655
7039,3.039,0.00521655
7040,3.04,0.00521655
7041,3.041,0.00521655
7042,3.042,0.00521655
7043,3.043,0.00521655
7044,3.044,0.00521655
7045,3.045,0.00521655
7046,3.046,0.00521655
7047,3.047,0.00521655
7048,3.048,0.00521655
7049,3.049,0.00521655
7050,3.05,0.00521655
7051,3.051,0.00521655
7052,3.052,0.00521655
7053,3.053,0.00521655
7054,3.054,0.00521655
7055,3.055,0.00521655
7056,3.056,0.00521655
7057,3.057,0.00521655
7058,3.058,0.00521655
7059,3.059,0.00521655
7060,3.06,0.00521655
7061,3.061,0.00521655
7062,3.062,0.00521655
7063,3.063,0.00521655
7064,3.064,0.00521655
7065,3.065,0.00521655
7066,3.066,0.00521655
7067,3.067,0.00521655
7068,3.068,0.00521655
7069,3.069,0.00521655
7070,3.07,0.00521655
7071,3.071,0.00521655
7072,3.072,0.00521655
7073,3.073,0.00521655
7074,3.074,0.00521655
7075,3.075,0.00521655
7076,3.076,0.00521655
7077,3.077,0.00521655
7078,3.078,0.00521655
7079,3.079,0.00521655
7080,3.08,0.00521655
7081,3.081,0.00521655
7082,3.082,0.00521655
7083,3.083,0.00521655
7084,3.084,0.00521655
7085,3.085,0.00521655
7086,3.086,0.00521655
7087,3.087,0.00521655
7088,3.088,0.00521655
7089,3.089,0.00521655
7090,3.09,0.00521655
7091,3.091,0.00521655
7092,3.092,0.00521655
7093,3.093,0.00521655
7094,3.094,0.00521655
7095,3.095,0.00521655
7096,3.096,0.00521655
7097,3.097,0.00521655
7098,3.098,0.00521655
7099,3.099,0.00521655
7100,3.1,0.00521655
7101,3.101,0.00521655
7102,3.102,0.00521655
7103,3.103,0.00521655
7104,3.104,0.00521655
7105,3.105,0.00521655
7106,3.106,0.00521655
7107,3.107,0.00521655
7108,3.108,0.00521655
7109,3.109,0.00521655
7110,3.11,0.00521655
7111,3.111,0.00521655
7112,3.112,0.00521655
7113,3.113,0.00521655
7114,3.114,0.00521655
7115,3.115,0.00521655
7116,3.116,0.00521655
7117,3.117,0.00521655
7118,3.118,0.00521655
7119,3.119,0.00521655
7120,3.12,0.00521655
7121,3.121,0.00521655
7122,3.122,0.00521655
7123,3.123,0.00521655
7124,3.124,0.00521655
7125,3.125,0.00521655
7126,3.126,0.00521655
7127,3.127,0.00521655
7128,3.128,0.00521655
7129,3.129,0.00521655
7130,3.13,0.00521655
7131,3.131,0.00521655
7132,3.132,0.00521655
7133,3.133,0.00521655
7134,3.134,0.00521655
7135,3.135,0.00521655
7136,3.136,0.00521655
7137,3.137,0.00521655
7138,3.138,0.00521655
7139,3.139,0.00521655
7140,3.14,0.00521655
7141,3.141,0.00521655
7142,3.142,0.00521655
7143,3.143,0.00521655
7144,3.144,0.00521655
7145,3.145,0.00521655
7146,3.146,0.00521655
7147,3.147,0.00521655
7148,3.148,0.00521655
7149,3.149,0.00521655
7150,3.15,0.00521655
7151,3.151,0.00521655
7152,3.152,0.00521655
7153,3.153,0.00521655
7154,3.154,0.00521655
7155,3.155,0.00521655
7156,3.156,0.00521655
7157,3.157,0.00521655
7158,3.158,0.00521655
7159,3.159,0.00521655
7160,3.16,0.00521655
7161,3.161,0.00521655
7162,3.162,0.00521655
7163,3.163,0.00521655
7164,3.164,0.00521655
7165,3.165,0.00521655
7166,3.166,0.00521655
7167,3.167,0.00521655
7168,3.168,0.00521655
7169,3.169,0.00521655
7170,3.17,0.00521655
7171,3.171,0.00521655
7172,3.172,0.00521655
7173,3.173,0.00521655
7174,3.174,0.00521655
7175,3.175,0.00521655
7176,3.176,0.00521655
7177,3.177,0.00521655
7178,3.178,0.00521655
7179,3.179,0.00521655
7180,3.18,0.00521655
7181,3.181,0.00521655
7182,3.182,0.00521655
7183,3.183,0.00521655
7184,3.184,0.00521655
7185,3.185,0.00521655
7186,3.186,0.00521655
7187,3.187,0.00521655
7188,3.188,0.00521655
7189,3.189,0.00521655
7190,3.19,0.00521655
7191,3.191,0.00521655
7192,3.192,0.00521655
7193,3.193,0.00521655
7194,3.194,0.00521655
7195,3.195,0.00521655
7196,3.196,0.00521655
7197,3.197,0.00521655
7198,3.198,0.00521655
7199,3.199,0.00521655
7200,3.2,0.00521655
7201,3.201,0.00521655
7202,3.202,0.00521655
7203,3.203,0.00521655
7204,3.204,0.00521655
7205,3.205,0.00521655
7206,3.206,0.00521655
7207,3.207,0.00521655
7208,3.208,0.00521655
7209,3.209,0.00521655
7210,3.21,0.00521655
7211,3.211,0.00521655
7212,3.212,0.00521655
7213,3.213,0.00521655
7214,3.214,0.00521655
7215,3.215,0.00521655
7216,3.216,0.00521655
7217,3.217,0.00521655
7218,3.218,0.00521655
7219,3.219,0.00521655
7220,3.22,0.00521655
7221,3.221,0.00521655
7222,3.222,0.00521655
7223,3.223,0.00521655
7224,3.224,0.00521655
7225,3.225,0.00521655
7226,3.226,0.00521655
7227,3.227,0.00521655
7228,3.228,0.00521655
7229,3.229,0.00521655
7230,3.23,0.00521655
7231,3.231,0.00521655
7232,3.232,0.00521655
7233,3.233,0.00521655
7234,3.234,0.00521655
7235,3.235,0.00521655
7236,3.236,0.00521655
7237,3.237,0.00521655
7238,3.238,0.00521655
7239,3.239,0.00521655
7240,3.24,0.00521655
7241,3.241,0.00521655
7242,3.242,0.00521655
7243,3.243,0.00521655
7244,3.244,0.00521655
7245,3.245,0.00521655
7246,3.246,0.00521655
7247,3.247,0.00521655
7248,3.248,0.00521655
7249,3.249,0.00521655
7250,3.25,0.00521655
7251,3.251,0.00521655
7252,3.252,0.00521655
7253,3.253,0.00521655
7254,3.254,0.00521655
7255,3.255,0.00521655
7256,3.256,0.00521655
7257,3.257,0.00521655
7258,3.258,0.00521655
7259,3.259,0.00521655
7260,3.26,0.00521655
7261,3.261,0.00521655
7262,3.262,0.00521655
7263,3.263,0.00521655
7264,3.264,0.00521655
7265,3.265,0.00521655
7266,3.266,0.00521655
7267,3.267,0.00521655
7268,3.268,0.00521655
7269,3.269,0.00521655
7270,3.27,0.00521655
7271,3.271,0.00521655
7272,3.272,0.00521655
7273,3.273,0.00521655
7274,3.274,0.00521655
7275,3.275,0.00521655
7276,3.276,0.00521655
7277,3.277,0.00521655
7278,3.278,0.00521655
7279,3.279,0.00521655
7280,3.28,0.00521655
7281,3.281,0.00521655
7282,3.282,0.00521655
7283,3.283,0.00521655
7284,3.284,0.00521655
7285,3.285,0.00521655
7286,3.286,0.00521655
7287,3.287,0.00521655
7288,3.288,0.00521655
7289,3.289,0.00521655
7290,3.29,0.00521655
7291,3.291,0.00521655
7292,3.292,0.00521655
7293,3.293,0.00521655
7294,3.294,0.00521655
7295,3.295,0.00521655
7296,3.296,0.00521655
7297,3.297,0.00521655
7298,3.298,0.00521655
7299,3.299,0.00521655
7300,3.3,0.00521655
7301,3.301,0.00521655
7302,3.302,0.00521655
7303,3.303,0.00521655
7304,3.304,0.00521655
7305,3.305,0.00521655
7306,3.306,0.00521655
7307,3.307,0.00521655
7308,3.308,0.00521655
7309,3.309,0.00521655
7310,3.31,0.00521655
7311,3.311,0.00521655
7312,3.312,0.00521655
7313,3.313,0.00521655
7314,3.314,0.00521655
7315,3.315,0.00521655
7316,3.316,0.00521655
7317,3.317,0.00521655
7318,3.318,0.00521655
7319,3.319,0.00521655
7320,3.32,0.00521655
7321,3.321,0.00521655
7322,3.322,0.00521655
7323,3.323,0.00521655
7324,3.324,0.00521655
7325,3.325,0.00521655
7326,3.326,0.00521655
7327,3.327,0.00521655
7328,3.328,0.00521655
7329,3.329,0.00521655
7330,3.33,0.00521655
7331,3.331,0.00521655
7332,3.332,0.00521655
7333,3.333,0.00521655
7334,3.334,0.00521655
7335,3.335,0.00521655
7336,3.336,0.00521655
7337,3.337,0.00521655
7338,3.338,0.00521655
7339,3.339,0.00521655
7340,3.34,0.00521655
7341,3.341,0.00521655
7342,3.342,0.00521655
7343,3.343,0.00521655
7344,3.344,0.00521655
7345,3.345,0.00521655
7346,3.346,0.00521655
7347,3.347,0.00521655
7348,3.348,0.00521655
7349,3.349,0.00521655
7350,3.35,0.00521655
7351,3.351,0.00521655
7352,3.352,0.00521655
7353,3.353,0.00521655
7354,3.354,0.00521655
7355,3.355,0.00521655
7356,3.356,0.00521655
7357,3.357,0.00521655
7358,3.358,0.00521655
7359,3.359,0.00521655
7360,3.36,0.00521655
7361,3.361,0.00521655
7362,3.362,0.00521655
7363,3.363,0.00521655
7364,3.364,0.00521655
7365,3.365,0.00521655
7366,3.366,0.00521655
7367,3.367,0.00521655
7368,3.368,0.00521655
7369,3.369,0.00521655
7370,3.37,0.00521655
7371,3.371,0.00521655
7372,3.372,0.00521655
7373,3.373,0.00521655
7374,3.374,0.00521655
7375,3.375,0.00521655
7376,3.376,0.00521655
7377,3.377,0.00521655
7378,3.378,0.00521655
7379,3.379,0.00521655
7380,3.38,0.00521655
7381,3.381,0.00521655
7382,3.382,0.00521655
7383,3.383,0.00521655
7384,3.384,0.00521655
7385,3.385,0.00521655
7386,3.386,0.00521655
7387,3.387,0.00521655
7388,3.388,0.00521655
7389,3.389,0.00521655
7390,3.39,0.00521655
7391,3.391,0.00521655
7392,3.392,0.00521655
7393,3.393,0.00521655
7394,3.394,0.00521655
7395,3.395,0.00521655
7396,3.396,0.00521655
7397,3.397,0.00521655
7398,3.398,0.00521655
7399,3.399,0.00521655
7400,3.4,0.00521655
7401,3.401,0.00521655
7402,3.402,0.00521655
7403,3.403,0.00521655
7404,3.404,0.00521655
7405,3.405,0.00521655
7406,3.406,0.00521655
7407,3.407,0.00521655
7408,3.408,0.00521655
7409,3.409,0.00521655
7410,3.41,0.00521655
7411,3.411,0.00521655
7412,3.412,0.00521655
7413,3.413,0.00521655
7414,3.414,0.00521655
7415,3.415,0.00521655
7416,3.416,0.00521655
7417,3.417,0.00521655
7418,3.418,0.00521655
7419,3.419,0.00521655
7420,3.42,0.00521655
7421,3.421,0.00521655
7422,3.422,0.00521655
7423,3.423,0.00521655
7424,3.424,0.00521655
7425,3.425,0.00521655
7426,3.426,0.00521655
7427,3.427,0.00521655
7428,3.428,0.00521655
7429,3.429,0.00521655
7430,3.43,0.00521655
7431,3.431,0.00521655
7432,3.432,0.00521655
7433,3.433,0.00521655
7434,3.434,0.00521655
7435,3.435,0.00521655
7436,3.436,0.00521655
7437,3.437,0.00521655
7438,3.438,0.00521655
7439,3.439,0.00521655
7440,3.44,0.00521655
7441,3.441,0.00521655
7442,3.442,0.00521655
7443,3.443,0.00521655
7444,3.444,0.00521655
7445,3.445,0.00521655
7446,3.446,0.00521655
7447,3.447,0.00521655
7448,3.448,0.00521655
7449,3.449,0.00521655
7450,3.45,0.00521655
7451,3.451,0.00521655
7452,3.452,0.00521655
7453,3.453,0.00521655
7454,3.454,0.00521655
7455,3.455,0.00521655
7456,3.456,0.00521655
7457,3.457,0.00521655
7458,3.458,0.00521655
7459,3.459,0.00521655
7460,3.46,0.00521655
7461,3.461,0.00521655
7462,3.462,0.00521655
7463,3.463,0.00521655
7464,3.464,0.00521655
7465,3.465,0.00521655
7466,3.466,0.00521655
7467,3.467,0.00521655
7468,3.468,0.00521655
7469,3.469,0.00521655
7470,3.47,0.00521655
7471,3.471,0.00521655
7472,3.472,0.00521655
7473,3.473,0.00521655
7474,3.474,0.00521655
7475,3.475,0.00521655
7476,3.476,0.00521655
7477,3.477,0.00521655
7478,3.478,0.00521655
7479,3.479,0.00521655
7480,3.48,0.00521655
7481,3.481,0.00521655
7482,3.482,0.00521655
7483,3.483,0.00521655
7484,3.484,0.00521655
7485,3.485,0.00521655
7486,3.486,0.00521655
7487,3.487,0.00521655
7488,3.488,0.00521655
7489,3.489,0.00521655
7490,3.49,0.00521655
7491,3.491,0.00521655
7492,3.492,0.00521655
7493,3.493,0.00521655
7494,3.494,0.00521655
7495,3.495,0.00521655
7496,3.496,0.00521655
7497,3.497,0.00521655
7498,3.498,0.00521655
7499,3.499,0.00521655
7500,3.5,0.00521655
7501,3.501,0.00521655
7502,3.502,0.00521655
7503,3.503,0.00521655
7504,3.504,0.00521655
7505,3.505,0.00521655
7506,3.506,0.00521655
7507,3.507,0.00521655
7508,3.508,0.00521655
7509,3.509,0.00521655
7510,3.51,0.00521655
7511,3.511,0.00521655
7512,3.512,0.00521655
7513,3.513,0.00521655
7514,3.514,0.00521655
7515,3.515,0.00521655
7516,3.516,0.00521655
7517,3.517,0.00521655
7518,3.518,0.00521655
7519,3.519,0.00521655
7520,3.52,0.00521655
7521,3.521,0.00521655
7522,3.522,0.00521655
7523,3.523,0.00521655
7524,3.524,0.00521655
7525,3.525,0.00521655
7526,3.526,0.00521655
7527,3.527,0.00521655
7528,3.528,0.00521655
7529,3.529,0.00521655
7530,3.53,0.00521655
7531,3.531,0.00521655
7532,3.532,0.00521655
7533,3.533,0.00521655
7534,3.534,0.00521655
7535,3.535,0.00521655
7536,3.536,0.00521655
7537,3.537,0.00521655
7538,3.538,0.00521655
7539,3.539,0.00521655
7540,3.54,0.00521655
7541,3.541,0.00521655
7542,3.542,0.00521655
7543,3.543,0.00521655
7544,3.544,0.00521655
7545,3.545,0.00521655
7546,3.546,0.00521655
7547,3.547,0.00521655
7548,3.548,0.00521655
7549,3.549,0.00521655
7550,3.55,0.00521655
7551,3.551,0.00521655
7552,3.552,0.00521655
7553,3.553,0.00521655
7554,3.554,0.00521655
7555,3.555,0.00521655
7556,3.556,0.00521655
7557,3.557,0.00521655
7558,3.558,0.00521655
7559,3.559,0.00521655
7560,3.56,0.00521655
7561,3.561,0.00521655
7562,3.562,0.00521655
7563,3.563,0.00521655
7564,3.564,0.00521655
7565,3.565,0.00521655
7566,3.566,0.00521655
7567,3.567,0.00521655
7568,3.568,0.00521655
7569,3.569,0.00521655
7570,3.57,0.00521655
7571,3.571,0.00521655
7572,3.572,0.00521655
7573,3.573,0.00521655
7574,3.574,0.00521655
7575,3.575,0.00521655
7576,3.576,0.00521655
7577,3.577,0.00521655
7578,3.578,0.00521655
7579,3.579,0.00521655
7580,3.58,0.00521655
7581,3.581,0.00521655
7582,3.582,0.00521655
7583,3.583,0.00521655
7584,3.584,0.00521655
7585,3.585,0.00521655
7586,3.586,0.00521655
7587,3.587,0.00521655
7588,3.588,0.00521655
7589,3.589,0.00521655
7590,3.59,0.00521655
7591,3.591,0.00521655
7592,3.592,0.00521655
7593,3.593,0.00521655
7594,3.594,0.00521655
7595,3.595,0.00521655
7596,3.596,0.00521655
7597,3.597,0.00521655
7598,3.598,0.00521655
7599,3.599,0.00521655
7600,3.6,0.00521655
7601,3.601,0.00521655
7602,3.602,0.00521655
7603,3.603,0.00521655
7604,3.604,0.00521655
7605,3.605,0.00521655
7606,3.606,0.00521655
7607,3.607,0.00521655
7608,3.608,0.00521655
7609,3.609,0.00521655
7610,3.61,0.00521655
7611,3.611,0.00521655
7612,3.612,0.00521655
7613,3.613,0.00521655
7614,3.614,0.00521655
7615,3.615,0.00521655
7616,3.616,0.00521655
7617,3.617,0.00521655
7618,3.618,0.00521655
7619,3.619,0.00521655
7620,3.62,0.00521655
7621,3.621,0.00521655
7622,3.622,0.00521655
7623,3.623,0.00521655
7624,3.624,0.00521655
7625,3.625,0.00521655
7626,3.626,0.00521655
7627,3.627,0.00521655
7628,3.628,0.00521655
7629,3.629,0.00521655
7630,3.63,0.00521655
7631,3.631,0.00521655
7632,3.632,0.00521655
7633,3.633,0.00521655
7634,3.634,0.00521655
7635,3.635,0.00521655
7636,3.636,0.00521655
7637,3.637,0.00521655
7638,3.638,0.00521655
7639,3.639,0.00521655
7640,3.64,0.00521655
7641,3.641,0.00521655
7642,3.642,0.00521655
7643,3.643,0.00521655
7644,3.644,0.00521655
7645,3.645,0.00521655
7646,3.646,0.00521655
7647,3.647,0.00521655
7648,3.648,0.00521655
7649,3.649,0.00521655
7650,3.65,0.00521655
7651,3.651,0.00521655
7652,3.652,0.00521655
7653,3.653,0.00521655
7654,3.654,0.00521655
7655,3.655,0.00521655
7656,3.656,0.00521655
7657,3.657,0.00521655
7658,3.658,0.00521655
7659,3.659,0.00521655
7660,3.66,0.00521655
7661,3.661,0.00521655
7662,3.662,0.00521655
7663,3.663,0.00521655
7664,3.664,0.00521655
7665,3.665,0.00521655
7666,3.666,0.00521655
7667,3.667,0.00521655
7668,3.668,0.00521655
7669,3.669,0.00521655
7670,3.67,0.00521655
7671,3.671,0.00521655
7672,3.672,0.00521655
7673,3.673,0.00521655
7674,3.674,0.00521655
7675,3.675,0.00521655
7676,3.676,0.00521655
7677,3.677,0.0069554
7678,3.678,0.0799871
7679,3.679,0.182579
7680,3.68,0.175624
7681,3.681,0.179102
7682,3.682,0.179102
7683,3.683,0.179102
7684,3.684,0.179102
7685,3.685,0.179102
7686,3.686,0.179102
7687,3.687,0.179102
7688,3.688,0.179102
7689,3.689,0.179102
7690,3.69,0.179102
7691,3.691,0.179102
7692,3.692,0.179102
7693,3.693,0.179102
7694,3.694,0.179102
7695,3.695,0.179102
7696,3.696,0.179102
7697,3.697,0.179102
7698,3.698,0.179102
7699,3.699,0.179102
7700,3.7,0.179102
7701,3.701,0.179102
7702,3.702,0.179102
7703,3.703,0.179102
7704,3.704,0.179102
7705,3.705,0.179102
7706,3.706,0.179102
7707,3.707,0.179102
7708,3.708,0.179102
7709,3.709,0.179102
7710,3.71,0.179102
7711,3.711,0.179102
7712,3.712,0.179102
7713,3.713,0.179102
7714,3.714,0.179102
7715,3.715,0.179102
7716,3.716,0.179102
7717,3.717,0.179102
7718,3.718,0.179102
7719,3.719,0.179102
7720,3.72,0.179102
7721,3.721,0.179102
7722,3.722,0.179102
7723,3.723,0.179102
7724,3.724,0.179102
7725,3.725,0.179102
7726,3.726,0.179102
7727,3.727,0.179102
7728,3.728,0.179102
7729,3.729,0.179102
7730,3.73,0.179102
7731,3.731,0.179102
7732,3.732,0.179102
7733,3.733,0.179102
7734,3.734,0.179102
7735,3.735,0.179102
7736,3.736,0.179102
7737,3.737,0.179102
7738,3.738,0.179102
7739,3.739,0.179102
7740,3.74,0.179102
7741,3.741,0.179102
7742,3.742,0.179102
7743,3.743,0.179102
7744,3.744,0.179102
7745,3.745,0.179102
7746,3.746,0.179102
7747,3.747,0.179102
7748,3.748,0.179102
7749,3.749,0.179102
7750,3.75,0.179102
7751,3.751,0.179102
7752,3.752,0.179102
7753,3.753,0.179102
7754,3.754,0.179102
7755,3.755,0.179102
7756,3.756,0.179102
7757,3.757,0.179102
7758,3.758,0.179102
7759,3.759,0.179102
7760,3.76,0.179102
7761,3.761,0.179102
7762,3.762,0.179102
7763,3.763,0.179102
7764,3.764,0.179102
7765,3.765,0.179102
7766,3.766,0.179102
7767,3.767,0.179102
7768,3.768,0.179102
7769,3.769,0.179102
7770,3.77,0.179102
7771,3.771,0.179102
7772,3.772,0.179102
7773,3.773,0.179102
7774,3.774,0.179102
7775,3.775,0.179102
7776,3.776,0.179102
7777,3.777,0.179102
7778,3.778,0.179102
7779,3.779,0.179102
7780,3.78,0.179102
7781,3.781,0.179102
7782,3.782,0.179102
7783,3.783,0.179102
7784,3.784,0.179102
7785,3.785,0.179102
7786,3.786,0.179102
7787,3.787,0.179102
7788,3.788,0.179102
7789,3.789,0.179102
7790,3.79,0.179102
7791,3.791,0.179102
7792,3.792,0.179102
7793,3.793,0.179102
7794,3.794,0.179102
7795,3.795,0.179102
7796,3.796,0.179102
7797,3.797,0.179102
7798,3.798,0.179102
7799,3.799,0.179102
7800,3.8,0.179102
7801,3.801,0.179102
7802,3.802,0.179102
7803,3.803,0.179102
7804,3.804,0.179102
7805,3.805,0.179102
7806,3.806,0.179102
7807,3.807,0.179102
7808,3.808,0.179102
7809,3.809,0.179102
7810,3.81,0.175624
7811,3.811,0.187796
7812,3.812,0.0330382
7813,3.813,0.0069554
7814,3.814,0.00521655
7815,3.815,0.00521655
7816,3.816,0.00521655
7817,3.817,0.00521655
7818,3.818,0.00521655
7819,3.819,0.00521655
7820,3.82,0.00521655
7821,3.821,0.00521655
7822,3.822,0.00521655
7823,3.823,0.00521655
7824,3.824,0.00521655
7825,3.825,0.00521655
7826,3.826,0.00521655
7827,3.827,0.00521655
7828,3.828,0.00521655
7829,3.829,0.00521655
7830,3.83,0.00521655
7831,3.831,0.00521655
7832,3.832,0.00521655
7833,3.833,0.00521655
7834,3.834,0.00521655
7835,3.835,0.00521655
7836,3.836,0.00521655
7837,3.837,0.00521655
7838,3.838,0.00521655
7839,3.839,0.00521655
7840,3.84,0.00521655
7841,3.841,0.00521655
7842,3.842,0.00521655
7843,3.843,0.00521655
7844,3.844,0.00521655
7845,3.845,0.00521655
7846,3.846,0.00521655
7847,3.847,0.00521655
7848,3.848,0.00521655
7849,3.849,0.00521655
7850,3.85,0.00521655
7851,3.851,0.00521655
7852,3.852,0.00521655
7853,3.853,0.00521655
7854,3.854,0.00521655
7855,3.855,0.00521655
7856,3.856,0.00521655
7857,3.857,0.00521655
7858,3.858,0.00521655
7859,3.859,0.00521655
7860,3.86,0.00521655
7861,3.861,0.00521655
7862,3.862,0.00521655
7863,3.863,0.00521655
7864,3.864,0.00521655
7865,3.865,0.00521655
7866,3.866,0.00521655
7867,3.867,0.00521655
7868,3.868,0.00521655
7869,3.869,0.00521655
7870,3.87,0.00521655
7871,3.871,0.00521655
7872,3.872,0.00521655
7873,3.873,0.00521655
7874,3.874,0.00521655
7875,3.875,0.00521655
7876,3.876,0.00521655
7877,3.877,0.00521655
7878,3.878,0.00521655
7879,3.879,0.00521655
7880,3.88,0.00521655
7881,3.881,0.00521655
7882,3.882,0.00521655
7883,3.883,0.00521655
7884,3.884,0.00521655
7885,3.885,0.00521655
7886,3.886,0.00521655
7887,3.887,0.00521655
7888,3.888,0.00521655
7889,3.889,0.00521655
7890,3.89,0.00521655
7891,3.891,0.00521655
7892,3.892,0.00521655
7893,3.893,0.00521655
7894,3.894,0.00521655
7895,3.895,0.00521655
7896,3.896,0.00521655
7897,3.897,0.00521655
7898,3.898,0.00521655
7899,3.899,0.00521655
7900,3.9,0.00521655
7901,3.901,0.00521655
7902,3.902,0.00521655
7903,3.903,0.00521655
7904,3.904,0.00521655
7905,3.905,0.00521655
7906,3.906,0.00521655
7907,3.907,0.00521655
7908,3.908,0.00521655
7909,3.909,0.00521655
7910,3.91,0.00521655
7911,3.911,0.00521655
7912,3.912,0.00521655
7913,3.913,0.00521655
7914,3.914,0.00521655
7915,3.915,0.00521655
7916,3.916,0.00521655
7917,3.917,0.00521655
7918,3.918,0.00521655
7919,3.919,0.00521655
7920,3.92,0.00521655
7921,3.921,0.00521655
7922,3.922,0.00521655
7923,3.923,0.00521655
7924,3.924,0.00521655
7925,3.925,0.00521655
7926,3.926,0.00521655
7927,3.927,0.00521655
7928,3.928,0.00521655
7929,3.929,0.00521655
7930,3.93,0.00521655
7931,3.931,0.00521655
7932,3.932,0.00521655
7933,3.933,0.00521655
7934,3.934,0.00521655
7935,3.935,0.00521655
7936,3.936,0.00521655
7937,3.937,0.00521655
7938,3.938,0.00521655
7939,3.939,0.00521655
7940,3.94,0.00521655
7941,3.941,0.00521655
7942,3.942,0.00521655
7943,3.943,0.00521655
7944,3.944,0.00521655
7945,3.945,0.00521655
7946,3.946,0.00521655
7947,3.947,0.00521655
7948,3.948,0.00521655
7949,3.949,0.00521655
7950,3.95,0.00521655
7951,3.951,0.00521655
7952,3.952,0.00521655
7953,3.953,0.00521655
7954,3.954,0.00521655
7955,3.955,0.00521655
7956,3.956,0.00521655
7957,3.957,0.00521655
7958,3.958,0.00521655
7959,3.959,0.00521655
7960,3.96,0.00521655
7961,3.961,0.00521655
7962,3.962,0.00521655
7963,3.963,0.00521655
7964,3.964,0.00521655
7965,3.965,0.00521655
7966,3.966,0.00521655
7967,3.967,0.00521655
7968,3.968,0.00521655
7969,3.969,0.00521655
7970,3.97,0.00521655
7971,3.971,0.00521655
7972,3.972,0.00521655
7973,3.973,0.00521655
7974,3.974,0.00521655
7975,3.975,0.00521655
7976,3.976,0.00521655
7977,3.977,0.00521655
7978,3.978,0.00521655
7979,3.979,0.00521655
7980,3.98,0.00521655
7981,3.981,0.00521655
7982,3.982,0.00521655
7983,3.983,0.00521655
7984,3.984,0.00521655
7985,3.985,0.00521655
7986,3.986,0.00521655
7987,3.987,0.00521655
7988,3.988,0.00521655
7989,3.989,0.00521655
7990,3.99,0.00521655
7991,3.991,0.00521655
7992,3.992,0.00521655
7993,3.993,0.00521655
7994,3.994,0.00521655
7995,3.995,0.00521655
7996,3.996,0.00521655
7997,3.997,0.00521655
7998,3.998,0.00521655
7999,3.999,0.00521655
